# Wavelength (nm)	Smoothed Intensity
299.383362	45.316630
299.552002	45.591598
299.720612	45.864751
299.889191	46.097671
300.057800	46.343683
300.226379	46.606350
300.394958	46.874315
300.563538	47.142283
300.732117	47.405580
300.900696	47.667734
301.069244	47.912037
301.237793	48.177879
301.406342	48.464552
301.574890	48.696254
301.743408	48.938182
301.911957	49.167165
302.080475	49.432235
302.248993	49.689167
302.417480	49.939596
302.585999	50.198205
302.754486	50.450380
302.922974	50.693880
303.091461	50.928957
303.259949	51.155639
303.428436	51.392485
303.596893	51.616400
303.765350	51.854314
303.933807	52.083584
304.102264	52.306958
304.270691	52.535305
304.439117	52.742854
304.607574	52.959683
304.776001	53.148716
304.944397	53.390263
305.112823	53.614069
305.281219	53.815331
305.449615	54.003599
305.618011	54.196423
305.786407	54.426911
305.954773	54.605944
306.123169	54.825829
306.291534	55.029776
306.459900	55.236181
306.628235	55.445016
306.796600	55.655645
306.964935	55.863213
307.133270	56.063132
307.301605	56.256233
307.469940	56.459967
307.638245	56.638869
307.806580	56.825561
307.974884	57.021266
308.143188	57.216340
308.311462	57.388023
308.479767	57.575409
308.648041	57.772278
308.816315	57.964015
308.984589	58.138299
309.152863	58.309936
309.321106	58.491629
309.489380	58.633735
309.657623	58.793873
309.825867	58.950328
309.994080	59.130110
310.162323	59.298700
310.330536	59.459955
310.498749	59.634101
310.666962	59.802451
310.835175	59.942799
311.003357	60.082838
311.171539	60.249762
311.339752	60.416140
311.507904	60.565084
311.676086	60.711203
311.844238	60.863911
312.012421	61.010138
312.180573	61.146246
312.348724	61.285744
312.516846	61.390010
312.684998	61.551042
312.853119	61.687562
313.021240	61.821185
313.189362	61.948726
313.357452	62.066739
313.525574	62.171870
313.693665	62.304361
313.861755	62.401675
314.029846	62.485347
314.197937	62.607684
314.365997	62.743150
314.534058	62.866605
314.702118	62.953312
314.870178	63.047280
315.038239	63.167079
315.206268	63.265865
315.374298	63.358960
315.542328	63.470106
315.710358	63.588698
315.878357	63.718983
316.046387	63.797054
316.214386	63.903337
316.382385	64.002850
316.550385	64.107154
316.718353	64.187828
316.886353	64.290230
317.054321	64.387190
317.222290	64.494306
317.390259	64.604269
317.558197	64.708784
317.726135	64.795754
317.894104	64.880028
318.062012	64.992243
318.229950	65.075145
318.397888	65.181792
318.565796	65.274136
318.733704	65.367233
318.901611	65.435398
319.069519	65.534593
319.237396	65.635930
319.405304	65.736043
319.573181	65.823471
319.741058	65.904003
319.908905	65.987313
320.076782	66.079631
320.244629	66.152515
320.412476	66.214861
320.580322	66.273110
320.748169	66.362816
320.915985	66.418645
321.083801	66.501654
321.251617	66.554363
321.419434	66.604197
321.587250	66.719346
321.755035	66.773108
321.922821	66.843546
322.090607	66.917896
322.258392	67.022866
322.426178	67.081476
322.593933	67.151415
322.761719	67.208464
322.929474	67.272708
323.097198	67.363767
323.264954	67.441760
323.432678	67.522887
323.600403	67.604533
323.768127	67.687167
323.935852	67.767032
324.103577	67.826783
324.271271	67.903320
324.438965	67.954219
324.606659	68.046673
324.774353	68.143903
324.942047	68.175523
325.109711	68.248431
325.277374	68.335215
325.445038	68.366605
325.612701	68.415860
325.780334	68.468869
325.947968	68.494914
326.115631	68.562138
326.283234	68.616056
326.450867	68.648336
326.618500	68.705326
326.786102	68.746455
326.953705	68.789779
327.121307	68.834057
327.288879	68.879560
327.456482	68.948659
327.624054	69.003668
327.791626	69.057308
327.959198	69.082263
328.126770	69.103053
328.294312	69.154809
328.461853	69.198147
328.629395	69.234381
328.796936	69.296811
328.964478	69.353532
329.131989	69.408733
329.299500	69.471422
329.467010	69.527106
329.634521	69.578215
329.802002	69.632594
329.969513	69.693657
330.136993	69.763273
330.304474	69.828120
330.471954	69.871398
330.639404	69.951363
330.806854	69.993933
330.974335	70.051527
331.141754	70.091849
331.309204	70.146779
331.476654	70.206281
331.644073	70.272718
331.811493	70.321693
331.978912	70.350111
332.146332	70.422822
332.313721	70.475229
332.481110	70.535417
332.648499	70.586031
332.815887	70.640006
332.983276	70.694970
333.150635	70.725393
333.317993	70.783379
333.485352	70.819478
333.652710	70.862423
333.820068	70.919115
333.987396	70.947223
334.154724	70.978457
334.322052	71.019266
334.489380	71.068294
334.656708	71.093826
334.824005	71.124970
334.991302	71.143972
335.158600	71.183965
335.325897	71.240802
335.493164	71.269255
335.660431	71.299483
335.827728	71.325077
335.994965	71.346698
336.162231	71.367713
336.329498	71.405844
336.496735	71.449894
336.663971	71.444186
336.831207	71.482288
336.998413	71.508294
337.165649	71.535059
337.332855	71.558019
337.500061	71.616284
337.667267	71.640051
337.834442	71.675758
338.001648	71.726031
338.168823	71.760630
338.335999	71.805042
338.503174	71.830339
338.670319	71.843357
338.837494	71.870600
339.004639	71.897843
339.171783	71.906290
339.338898	71.949452
339.506042	71.965029
339.673157	71.976462
339.840271	72.003770
340.007385	72.030951
340.174500	72.074453
340.341583	72.122908
340.508667	72.154147
340.675751	72.182913
340.842834	72.192131
341.009918	72.218564
341.176971	72.261628
341.344055	72.303192
341.511108	72.354715
341.678131	72.376002
341.845184	72.393294
342.012207	72.423537
342.179230	72.447533
342.346252	72.465489
342.513275	72.515900
342.680298	72.544539
342.847290	72.569173
343.014282	72.608674
343.181274	72.639279
343.348267	72.688029
343.515228	72.705351
343.682190	72.693690
343.849152	72.713430
344.016113	72.745001
344.183075	72.780957
344.350006	72.814247
344.516968	72.837236
344.683899	72.851719
344.850800	72.858819
345.017731	72.886166
345.184631	72.909671
345.351532	72.941293
345.518433	72.968282
345.685333	72.996308
345.852234	73.009769
346.019104	73.025535
346.185974	73.052995
346.352844	73.058912
346.519714	73.089623
346.686554	73.083198
346.853424	73.078428
347.020264	73.106434
347.187073	73.118753
347.353912	73.144921
347.520721	73.141813
347.687561	73.156928
347.854370	73.168035
348.021179	73.181240
348.187958	73.191482
348.354736	73.188264
348.521545	73.231027
348.688324	73.251315
348.855072	73.283332
349.021851	73.283191
349.188599	73.280179
349.355347	73.290827
349.522095	73.301552
349.688843	73.323545
349.855560	73.325248
350.022308	73.362670
350.189026	73.396708
350.355743	73.423193
350.522430	73.427083
350.689148	73.441649
350.855835	73.473380
351.022522	73.483676
351.189209	73.497048
351.355865	73.502185
351.522522	73.519862
351.689209	73.565377
351.855865	73.574385
352.022491	73.584537
352.189148	73.580697
352.355774	73.615223
352.522400	73.650255
352.689026	73.669724
352.855652	73.682713
353.022247	73.712890
353.188843	73.728691
353.355438	73.730472
353.522034	73.735484
353.688629	73.744093
353.855194	73.788310
354.021759	73.801640
354.188324	73.815123
354.354889	73.855315
354.521454	73.880325
354.687988	73.904691
354.854523	73.938748
355.021057	73.940258
355.187592	73.957506
355.354095	73.995883
355.520599	74.019665
355.687134	74.029883
355.853607	74.019677
356.020111	74.041373
356.186584	74.066439
356.353088	74.067787
356.519562	74.073218
356.686005	74.068852
356.852478	74.086025
357.018921	74.096201
357.185364	74.082890
357.351807	74.079753
357.518250	74.081913
357.684692	74.073527
357.851105	74.058805
358.017517	74.096837
358.183929	74.091060
358.350311	74.102824
358.516724	74.094495
358.683105	74.093990
358.849487	74.096815
359.015869	74.121777
359.182220	74.159430
359.348602	74.162701
359.514954	74.164096
359.681305	74.173047
359.847656	74.217562
360.013977	74.260906
360.180298	74.254619
360.346649	74.263215
360.512939	74.291079
360.679260	74.328816
360.845581	74.350683
361.011871	74.370598
361.178162	74.396923
361.344452	74.387358
361.510712	74.407480
361.677002	74.422195
361.843262	74.442452
362.009521	74.443920
362.175751	74.461546
362.342010	74.474608
362.508240	74.491580
362.674469	74.515042
362.840698	74.523927
363.006927	74.543712
363.173126	74.539216
363.339325	74.514299
363.505524	74.565497
363.671722	74.575180
363.837921	74.593542
364.004089	74.602429
364.170258	74.623565
364.336426	74.626683
364.502594	74.636547
364.668762	74.643882
364.834900	74.626846
365.001038	74.644032
365.167175	74.668825
365.333282	74.684535
365.499420	74.686300
365.665527	74.683982
365.831635	74.679361
365.997742	74.679215
366.163818	74.716462
366.329926	74.721294
366.496002	74.737679
366.662079	74.771847
366.828156	74.741360
366.994202	74.771785
367.160248	74.783861
367.326294	74.784785
367.492340	74.795242
367.658386	74.801679
367.824402	74.801591
367.990448	74.812644
368.156464	74.853025
368.322449	74.860358
368.488464	74.843426
368.654449	74.849214
368.820435	74.853618
368.986420	74.858444
369.152405	74.884747
369.318390	74.908599
369.484344	74.893152
369.650299	74.925223
369.816254	74.935142
369.982178	74.965354
370.148132	75.004363
370.314056	75.004391
370.479980	75.021026
370.645905	75.037753
370.811798	75.019557
370.977692	75.027106
371.143616	75.040832
371.309479	75.054221
371.475372	75.053191
371.641266	75.061660
371.807129	75.061921
371.972992	75.071883
372.138855	75.101649
372.304688	75.110531
372.470551	75.105868
372.636383	75.107192
372.802216	75.123313
372.968018	75.109646
373.133850	75.120410
373.299652	75.120142
373.465454	75.108575
373.631256	75.113273
373.797058	75.091300
373.962830	75.078133
374.128601	75.103267
374.294373	75.101155
374.460144	75.123964
374.625916	75.135798
374.791656	75.137780
374.957397	75.142016
375.123138	75.167681
375.288879	75.177642
375.454590	75.176715
375.620331	75.177857
375.786041	75.198284
375.951721	75.199798
376.117432	75.191105
376.283112	75.190810
376.448822	75.178910
376.614471	75.171611
376.780151	75.185418
376.945831	75.205258
377.111481	75.215877
377.277130	75.256735
377.442780	75.274729
377.608429	75.288586
377.774048	75.285306
377.939667	75.273602
378.105286	75.284344
378.270905	75.291264
378.436523	75.303870
378.602112	75.288946
378.767700	75.275276
378.933289	75.275359
379.098877	75.251929
379.264435	75.244425
379.429993	75.264784
379.595551	75.292788
379.761108	75.290820
379.926666	75.304417
380.092194	75.308223
380.257721	75.283890
380.423248	75.292224
380.588776	75.263087
380.754272	75.244346
380.919800	75.239803
381.085297	75.242618
381.250793	75.236910
381.416260	75.222063
381.581757	75.243037
381.747223	75.250100
381.912689	75.272703
382.078125	75.299974
382.243591	75.293388
382.409027	75.309693
382.574463	75.312117
382.739899	75.307006
382.905334	75.287925
383.070740	75.310866
383.236176	75.318565
383.401581	75.322675
383.566956	75.356388
383.732361	75.382467
383.897736	75.376936
384.063110	75.407344
384.228485	75.428935
384.393860	75.444668
384.559204	75.478091
384.724579	75.485659
384.889923	75.480622
385.055237	75.492573
385.220581	75.494240
385.385895	75.489907
385.551239	75.533815
385.716522	75.530425
385.881836	75.566846
386.047150	75.588177
386.212433	75.591165
386.377716	75.600939
386.542999	75.606254
386.708252	75.612861
386.873535	75.605735
387.038788	75.596214
387.204041	75.612731
387.369293	75.595834
387.534515	75.582673
387.699738	75.561509
387.864960	75.562052
388.030182	75.579630
388.195404	75.558768
388.360596	75.565268
388.525787	75.560106
388.690979	75.568588
388.856171	75.567187
389.021362	75.586110
389.186523	75.563408
389.351685	75.548373
389.516846	75.575552
389.682007	75.595039
389.847137	75.602216
390.012268	75.611316
390.177399	75.631074
390.342529	75.638818
390.507629	75.634093
390.672760	75.613236
390.837860	75.636282
391.002960	75.644978
391.168030	75.653494
391.333130	75.675705
391.498199	75.691772
391.663269	75.684727
391.828339	75.697298
391.993378	75.721889
392.158447	75.725439
392.323486	75.739198
392.488525	75.726622
392.653534	75.738427
392.818573	75.738977
392.983582	75.704989
393.148590	75.729624
393.313599	75.709704
393.478577	75.713408
393.643585	75.708668
393.808563	75.741786
393.973541	75.765022
394.138489	75.766260
394.303467	75.793223
394.468414	75.784191
394.633362	75.780508
394.798309	75.772743
394.963226	75.770837
395.128174	75.776572
395.293091	75.772126
395.458008	75.774614
395.622894	75.764585
395.787811	75.805817
395.952698	75.839444
396.117584	75.842566
396.282471	75.848127
396.447327	75.830883
396.612213	75.841294
396.777069	75.826261
396.941925	75.818066
397.106750	75.804328
397.271606	75.823153
397.436432	75.826926
397.601257	75.833133
397.766083	75.849026
397.930878	75.863167
398.095703	75.883469
398.260498	75.891711
398.425293	75.901246
398.590057	75.879700
398.754852	75.883059
398.919617	75.891253
399.084381	75.882576
399.249146	75.872049
399.413879	75.864178
399.578644	75.888393
399.743378	75.892442
399.908112	75.921657
400.072815	75.942569
400.237549	75.976248
400.402252	75.994940
400.566956	75.997297
400.731659	75.999550
400.896332	76.009386
401.061035	76.020919
401.225708	75.998083
401.390381	75.985267
401.555023	75.980229
401.719696	75.992376
401.884338	76.007985
402.048981	75.990043
402.213623	76.012120
402.378235	76.021704
402.542847	76.041062
402.707489	76.037628
402.872070	76.052530
403.036682	76.045556
403.201294	76.051233
403.365875	76.043121
403.530457	76.016206
403.695007	75.993629
403.859589	76.015683
404.024139	76.045074
404.188690	76.014087
404.353241	75.993104
404.517792	76.014386
404.682312	76.036342
404.846832	76.049984
405.011353	76.042787
405.175873	76.068311
405.340393	76.073240
405.504883	76.069002
405.669373	76.062850
405.833862	76.054594
405.998322	76.067415
406.162811	76.051675
406.327271	76.076405
406.491730	76.051334
406.656189	76.068320
406.820618	76.080200
406.985046	76.082162
407.149475	76.056972
407.313904	76.033242
407.478333	76.050483
407.642731	76.087418
407.807129	76.097505
407.971527	76.121611
408.135925	76.095896
408.300293	76.092899
408.464661	76.089681
408.629028	76.111532
408.793396	76.082136
408.957764	76.096682
409.122101	76.078650
409.286438	76.076082
409.450775	76.066640
409.615112	76.057765
409.779419	76.079829
409.943726	76.050007
410.108032	76.081879
410.272339	76.118983
410.436646	76.125142
410.600922	76.131882
410.765198	76.132302
410.929474	76.090310
411.093750	76.104133
411.257996	76.054939
411.422241	76.074945
411.586487	76.085093
411.750732	76.074430
411.914948	76.077354
412.079193	76.113268
412.243408	76.127399
412.407623	76.161441
412.571808	76.162352
412.735992	76.199668
412.900208	76.194358
413.064392	76.201814
413.228546	76.193633
413.392731	76.178964
413.556885	76.186112
413.721039	76.185464
413.885193	76.200574
414.049316	76.212809
414.213470	76.235585
414.377594	76.213626
414.541718	76.234156
414.705811	76.253443
414.869934	76.216425
415.034027	76.223921
415.198120	76.250477
415.362213	76.264697
415.526276	76.273742
415.690338	76.271230
415.854431	76.281812
416.018463	76.281499
416.182526	76.283403
416.346558	76.270931
416.510620	76.321414
416.674622	76.330596
416.838654	76.328755
417.002686	76.346624
417.166687	76.366228
417.330688	76.385989
417.494690	76.420020
417.658661	76.433146
417.822662	76.459306
417.986633	76.469231
418.150604	76.490301
418.314545	76.460090
418.478516	76.446813
418.642456	76.420401
418.806396	76.426565
418.970337	76.411220
419.134247	76.436689
419.298187	76.428003
419.462097	76.443475
419.625977	76.466261
419.789886	76.489210
419.953766	76.514112
420.117676	76.500452
420.281555	76.526773
420.445404	76.514984
420.609283	76.509348
420.773132	76.492914
420.936981	76.493986
421.100830	76.512067
421.264648	76.536867
421.428497	76.566336
421.592316	76.606387
421.756134	76.616440
421.919922	76.639329
422.083740	76.653365
422.247528	76.678783
422.411316	76.665910
422.575104	76.654503
422.738861	76.670289
422.902618	76.717043
423.066406	76.724641
423.230133	76.700827
423.393890	76.714916
423.557617	76.716547
423.721344	76.726466
423.885071	76.742274
424.048798	76.754628
424.212524	76.753236
424.376221	76.707663
424.539917	76.687570
424.703583	76.678564
424.867279	76.692109
425.030945	76.682051
425.194611	76.693685
425.358276	76.680411
425.521942	76.693157
425.685577	76.728882
425.849213	76.762882
426.012848	76.776943
426.176483	76.727716
426.340118	76.728509
426.503723	76.758475
426.667328	76.783600
426.830933	76.796030
426.994507	76.801548
427.158112	76.785249
427.321686	76.780133
427.485229	76.797958
427.648804	76.838037
427.812378	76.856782
427.975922	76.870231
428.139465	76.899438
428.302979	76.915945
428.466522	76.914101
428.630035	76.907662
428.793549	76.890530
428.957062	76.861649
429.120575	76.856333
429.284058	76.850853
429.447540	76.889741
429.611023	76.906255
429.774506	76.913953
429.937958	76.900131
430.101410	76.899759
430.264862	76.892283
430.428314	76.925154
430.591736	76.960616
430.755188	76.987866
430.918610	77.018177
431.082031	77.013324
431.245422	77.016070
431.408813	76.996868
431.572235	77.021802
431.735596	77.063936
431.898987	77.077235
432.062378	77.094994
432.225739	77.088342
432.389099	77.161215
432.552429	77.158078
432.715790	77.156318
432.879120	77.144746
433.042450	77.154177
433.205780	77.190328
433.369110	77.156538
433.532410	77.171251
433.695709	77.197776
433.859009	77.189159
434.022308	77.193238
434.185577	77.203168
434.348846	77.231980
434.512115	77.256197
434.675385	77.262676
434.838654	77.267289
435.001892	77.245878
435.165131	77.247760
435.328369	77.269456
435.491577	77.315718
435.654816	77.249634
435.818024	77.244470
435.981232	77.245738
436.144409	77.262358
436.307617	77.265027
436.470795	77.248028
436.633972	77.294670
436.797119	77.330279
436.960297	77.304720
437.123444	77.312453
437.286591	77.319545
437.449738	77.312810
437.612885	77.298488
437.776001	77.319280
437.939117	77.343441
438.102234	77.344878
438.265350	77.341773
438.428436	77.333106
438.591522	77.323209
438.754608	77.317448
438.917694	77.325008
439.080750	77.331474
439.243835	77.329362
439.406891	77.297725
439.569916	77.299088
439.732971	77.328676
439.895996	77.335339
440.059021	77.321904
440.222046	77.349620
440.385071	77.353879
440.548065	77.353946
440.711060	77.351691
440.874054	77.375504
441.037048	77.378231
441.200012	77.377261
441.363007	77.396752
441.525970	77.411222
441.688904	77.429800
441.851868	77.443973
442.014801	77.467580
442.177734	77.493687
442.340668	77.502186
442.503601	77.516255
442.666504	77.535691
442.829407	77.546152
442.992310	77.525535
443.155212	77.540007
443.318085	77.546045
443.480957	77.525970
443.643829	77.515841
443.806702	77.510099
443.969543	77.525735
444.132416	77.524338
444.295258	77.537990
444.458069	77.548721
444.620911	77.539172
444.783722	77.540044
444.946533	77.562924
445.109344	77.554825
445.272156	77.531142
445.434937	77.523324
445.597717	77.550699
445.760498	77.566415
445.923279	77.587672
446.086060	77.575873
446.248810	77.588147
446.411560	77.596717
446.574280	77.579810
446.737030	77.587512
446.899750	77.605962
447.062469	77.617729
447.225189	77.617020
447.387909	77.614262
447.550598	77.607871
447.713287	77.709153
447.875977	77.726019
448.038666	77.734701
448.201324	77.746840
448.363983	77.764442
448.526642	77.809098
448.689301	77.820114
448.851929	77.814625
449.014587	77.816012
449.177216	77.817500
449.339813	77.832106
449.502441	77.833598
449.665039	77.832050
449.827637	77.849162
449.990234	77.850165
450.152832	77.850235
450.315399	77.855741
450.477966	77.893980
450.640533	77.918805
450.803101	77.976136
450.965637	77.886299
451.128174	77.874523
451.290710	77.850258
451.453247	77.841492
451.615784	77.847875
451.778290	77.788231
451.940796	77.793606
452.103302	77.804529
452.265778	77.792616
452.428253	77.779157
452.590729	77.742577
452.753204	77.770711
452.915680	77.767898
453.078125	77.776498
453.240570	77.794918
453.403015	77.800751
453.565460	77.781850
453.727875	77.763549
453.890289	77.732048
454.052704	77.666219
454.215118	77.666749
454.377533	77.676825
454.539917	77.703046
454.702301	77.714071
454.864685	77.724703
455.027039	77.773354
455.189392	77.794941
455.351746	77.829799
455.514099	77.837382
455.676453	77.863211
455.838776	77.919418
456.001099	77.915765
456.163422	77.918946
456.325745	77.923849
456.488037	77.929924
456.650330	77.925711
456.812622	77.943500
456.974915	77.959949
457.137177	78.010219
457.299469	78.044387
457.461731	78.031368
457.623962	78.049619
457.786224	78.089317
457.948456	78.098108
458.110687	78.073055
458.272919	78.046470
458.435150	78.035850
458.597351	78.050901
458.759552	78.105640
458.921753	78.124379
459.083923	78.145418
459.246124	78.136225
459.408295	78.116989
459.570465	78.131493
459.732635	78.145138
459.894775	78.165728
460.056915	78.162307
460.219055	78.147037
460.381195	78.126570
460.543304	78.096521
460.705444	78.113124
460.867554	78.099064
461.029633	78.100171
461.191742	78.117806
461.353821	78.137300
461.515900	78.161296
461.677979	78.157082
461.840057	78.131108
462.002106	78.077962
462.164154	78.065443
462.326202	78.024058
462.488251	78.050054
462.650269	78.102882
462.812286	78.106747
462.974304	78.093368
463.136322	78.082219
463.298309	78.101524
463.460297	78.096659
463.622284	78.101152
463.784271	78.121051
463.946259	78.120633
464.108215	78.123264
464.270172	78.113791
464.432129	78.065424
464.594055	78.055495
464.755981	78.082587
464.917908	78.117323
465.079834	78.121191
465.241760	78.138916
465.403656	78.130717
465.565552	78.124733
465.727448	78.111250
465.889343	78.112844
466.051208	78.104707
466.213074	78.115006
466.374939	78.120419
466.536804	78.123154
466.698639	78.116526
466.860504	78.111638
467.022308	78.131602
467.184143	78.163195
467.345978	78.162364
467.507782	78.168895
467.669586	78.241325
467.831390	78.255027
467.993164	78.257325
468.154938	78.233931
468.316711	78.233369
468.478485	78.268966
468.640259	78.264785
468.802002	78.305464
468.963745	78.302607
469.125488	78.268493
469.287231	78.309383
469.448944	78.301375
469.610657	78.326779
469.772369	78.307007
469.934082	78.306705
470.095764	78.333113
470.257446	78.277290
470.419128	78.251804
470.580811	78.249373
470.742462	78.290213
470.904144	78.253833
471.065796	78.267816
471.227417	78.273467
471.389069	78.281544
471.550690	78.312178
471.712311	78.297782
471.873932	78.337688
472.035522	78.332592
472.197144	78.353432
472.358734	78.367556
472.520294	78.351650
472.681885	78.344401
472.843445	78.361767
473.005005	78.419871
473.166565	78.465240
473.328125	78.472699
473.489655	78.529602
473.651184	78.566414
473.812714	78.604661
473.974243	78.553672
474.135742	78.574665
474.297241	78.574045
474.458740	78.579954
474.620239	78.553913
474.781738	78.534626
474.943207	78.526236
475.104675	78.546495
475.266113	78.543055
475.427582	78.535222
475.589020	78.516662
475.750458	78.504153
475.911896	78.521181
476.073303	78.532856
476.234741	78.492714
476.396149	78.491477
476.557526	78.502472
476.718933	78.519853
476.880310	78.502334
477.041687	78.484479
477.203064	78.474711
477.364441	78.450348
477.525787	78.445301
477.687134	78.443059
477.848480	78.450353
478.009827	78.433811
478.171143	78.430776
478.332458	78.397793
478.493774	78.431107
478.655090	78.445380
478.816376	78.485467
478.977661	78.497312
479.138947	78.474763
479.300232	78.441244
479.461487	78.465899
479.622772	78.430665
479.784027	78.424923
479.945251	78.408600
480.106506	78.382018
480.267731	78.398132
480.428955	78.414539
480.590179	78.440980
480.751373	78.467884
480.912567	78.461225
481.073761	78.516671
481.234955	78.522450
481.396149	78.523504
481.557312	78.528888
481.718475	78.513006
481.879639	78.496846
482.040802	78.483613
482.201935	78.509362
482.363068	78.535429
482.524200	78.519126
482.685303	78.532709
482.846436	78.532005
483.007538	78.531813
483.168640	78.556325
483.329712	78.576802
483.490814	78.559665
483.651886	78.570109
483.812958	78.559700
483.973999	78.579589
484.135071	78.576358
484.296112	78.563143
484.457153	78.587093
484.618195	78.611506
484.779205	78.598363
484.940216	78.590427
485.101227	78.613155
485.262238	78.616373
485.423218	78.593011
485.584229	78.603404
485.745209	78.641977
485.906158	78.644294
486.067139	78.698335
486.228088	78.677678
486.389038	78.658961
486.549988	78.685659
486.710907	78.713921
486.871857	78.697255
487.032776	78.713349
487.193665	78.676928
487.354584	78.701500
487.515472	78.688172
487.676361	78.666489
487.837250	78.654605
487.998138	78.666968
488.158997	78.676332
488.319855	78.665731
488.480713	78.671896
488.641541	78.663499
488.802399	78.684881
488.963226	78.701874
489.124054	78.687910
489.284851	78.670710
489.445679	78.671313
489.606476	78.650523
489.767273	78.661458
489.928040	78.642218
490.088837	78.668393
490.249603	78.657304
490.410370	78.714994
490.571106	78.706982
490.731873	78.703938
490.892609	78.731211
491.053345	78.742124
491.214081	78.764235
491.374786	78.794252
491.535492	78.825370
491.696198	78.829193
491.856903	78.841329
492.017578	78.838964
492.178284	78.859117
492.338959	78.864164
492.499603	78.841061
492.660278	78.862592
492.820923	78.902764
492.981567	78.879263
493.142212	78.875029
493.302826	78.841994
493.463440	78.862343
493.624054	78.823552
493.784668	78.819219
493.945282	78.843363
494.105865	78.830739
494.266449	78.843121
494.427032	78.860005
494.587585	78.827673
494.748169	78.815480
494.908722	78.816463
495.069244	78.805450
495.229797	78.789657
495.390320	78.746760
495.550842	78.771363
495.711365	78.788697
495.871887	78.770574
496.032379	78.753843
496.192871	78.747643
496.353363	78.751833
496.513855	78.767900
496.674316	78.790871
496.834778	78.792207
496.995239	78.781595
497.155670	78.792202
497.316132	78.815801
497.476562	78.801246
497.636993	78.747975
497.797394	78.747998
497.957825	78.765109
498.118225	78.793606
498.278625	78.790933
498.438995	78.794886
498.599396	78.768351
498.759766	78.764770
498.920135	78.762986
499.080475	78.775430
499.240845	78.807981
499.401184	78.803300
499.561523	78.820729
499.721832	78.872425
499.882172	78.857200
500.042480	78.904568
500.202789	78.917266
500.363098	78.883542
500.523376	78.872427
500.683655	78.914719
500.843933	78.957843
501.004211	78.978457
501.164459	78.960624
501.324707	78.923391
501.484955	78.975993
501.645203	78.982620
501.805420	79.029370
501.965668	79.033797
502.125885	79.062404
502.286072	79.070757
502.446289	79.046430
502.606476	79.048065
502.766663	79.040368
502.926849	79.014709
503.087006	79.001799
503.247162	78.947216
503.407318	78.948321
503.567474	78.955838
503.727600	78.961711
503.887756	78.934202
504.047882	78.935303
504.207977	78.936923
504.368103	78.938564
504.528198	78.982493
504.688293	78.963541
504.848389	78.996179
505.008453	78.983991
505.168549	78.960748
505.328613	78.937994
505.488647	78.956249
505.648712	78.955847
505.808746	79.013057
505.968781	79.003751
506.128815	78.981522
506.288818	78.983158
506.448853	78.999757
506.608856	78.999480
506.768829	79.013337
506.928833	78.985183
507.088806	78.991063
507.248779	78.964719
507.408752	78.987693
507.568695	79.013574
507.728668	78.982295
507.888611	78.976834
508.048523	78.948825
508.208466	78.927908
508.368378	78.926053
508.528290	78.951582
508.688202	78.957188
508.848114	78.947379
509.007996	78.923826
509.167877	78.948016
509.327759	78.955610
509.487610	78.929473
509.647461	78.909308
509.807312	78.937354
509.967163	78.949014
510.127014	78.964032
510.286835	78.980367
510.446655	79.002411
510.606476	78.996176
510.766266	78.956488
510.926086	78.944023
511.085876	78.977691
511.245667	78.972166
511.405426	78.982343
511.565186	79.030229
511.724945	79.005347
511.884705	78.988627
512.044434	78.956420
512.204163	78.952594
512.363953	78.976000
512.523621	79.014339
512.683350	79.016778
512.843079	79.079993
513.002747	79.052504
513.162476	79.042425
513.322144	79.046130
513.481812	79.024010
513.641479	79.026679
513.801147	78.995943
513.960815	78.993072
514.120422	79.035652
514.280090	79.026650
514.439697	79.032511
514.599365	79.030037
514.758972	79.004777
514.918579	79.043757
515.078186	79.013289
515.237732	79.078549
515.397339	79.077203
515.556946	79.066596
515.716492	79.106502
515.876038	79.137993
516.035583	79.110117
516.195129	79.121273
516.354675	79.154368
516.514221	79.166775
516.673767	79.223903
516.833252	79.196970
516.992798	79.180623
517.152283	79.210450
517.311768	79.196593
517.471252	79.165184
517.630737	79.158402
517.790222	79.159007
517.949646	79.194413
518.109131	79.181486
518.268555	79.227930
518.427979	79.199540
518.587463	79.208377
518.746887	79.248155
518.906250	79.185768
519.065674	79.192904
519.225098	79.176049
519.384460	79.178953
519.543884	79.149051
519.703247	79.154320
519.862610	79.122126
520.021973	79.175380
520.181335	79.188141
520.340698	79.176968
520.500000	79.151701
520.659363	79.189809
520.818665	79.223691
520.977966	79.258019
521.137329	79.227640
521.296631	79.241582
521.455872	79.228705
521.615173	79.247479
521.774475	79.237467
521.933716	79.185452
522.093018	79.204572
522.252258	79.168335
522.411499	79.179516
522.570740	79.203998
522.729980	79.238585
522.889221	79.225918
523.048401	79.203852
523.207642	79.217881
523.366821	79.255506
523.526001	79.306019
523.685181	79.339045
523.844360	79.319751
524.003540	79.283621
524.162720	79.313683
524.321838	79.359490
524.481018	79.334094
524.640137	79.360777
524.799316	79.405763
524.958435	79.428054
525.117554	79.413724
525.276611	79.413529
525.435730	79.421706
525.594849	79.464011
525.753906	79.424054
525.912964	79.393334
526.072083	79.360292
526.231140	79.361745
526.390198	79.316549
526.549255	79.355140
526.708252	79.285224
526.867310	79.280273
527.026306	79.275685
527.185364	79.307988
527.344360	79.281237
527.503357	79.247764
527.662354	79.252287
527.821350	79.154895
527.980286	79.113729
528.139282	79.096941
528.298218	79.103894
528.457214	79.047583
528.616150	79.026653
528.775085	78.964745
528.934021	78.973446
529.092896	78.987952
529.251831	79.056030
529.410767	79.060560
529.569641	79.058303
529.728516	79.025666
529.887451	79.040558
530.046326	79.056911
530.205200	79.035138
530.364014	79.019732
530.522888	79.024165
530.681702	79.045157
530.840576	79.024486
530.999390	79.106841
531.158203	79.131859
531.317017	79.115251
531.475830	79.118220
531.634644	79.144325
531.793457	79.153656
531.952209	79.173208
532.110962	79.192617
532.269775	79.201205
532.428528	79.171560
532.587280	79.154135
532.746033	79.158654
532.904724	79.181420
533.063477	79.166920
533.222229	79.178914
533.380920	79.230092
533.539612	79.230041
533.698303	79.235587
533.856995	79.195748
534.015686	79.248455
534.174377	79.265634
534.333008	79.288613
534.491699	79.303217
534.650330	79.302054
534.808960	79.382289
534.967651	79.442184
535.126221	79.423231
535.284851	79.485174
535.443481	79.462162
535.602112	79.458633
535.760681	79.527651
535.919250	79.527219
536.077881	79.464684
536.236450	79.519162
536.395020	79.500752
536.553528	79.482966
536.712097	79.511435
536.870667	79.523138
537.029175	79.618770
537.187683	79.569550
537.346191	79.615246
537.504700	79.603287
537.663208	79.615500
537.821716	79.651174
537.980225	79.614456
538.138672	79.619107
538.297180	79.661675
538.455627	79.581003
538.614075	79.590273
538.772522	79.650736
538.930969	79.605454
539.089417	79.619967
539.247803	79.680457
539.406250	79.668066
539.564636	79.688214
539.723083	79.736683
539.881470	79.754115
540.039856	79.707623
540.198242	79.611478
540.356567	79.692086
540.514954	79.649893
540.673279	79.638214
540.831665	79.667112
540.989990	79.641128
541.148315	79.701245
541.306641	79.643174
541.464966	79.679810
541.623291	79.676346
541.781555	79.692191
541.939880	79.703983
542.098145	79.735484
542.256409	79.792735
542.414673	79.777532
542.572937	79.733922
542.731201	79.702670
542.889465	79.685102
543.047668	79.667094
543.205933	79.675582
543.364136	79.726875
543.522339	79.697918
543.680542	79.686280
543.838745	79.657721
543.996948	79.701041
544.155090	79.727601
544.313293	79.677012
544.471436	79.675013
544.629639	79.639671
544.787781	79.668016
544.945923	79.684767
545.104065	79.611183
545.262146	79.572036
545.420288	79.532516
545.578369	79.543877
545.736511	79.612543
545.894592	79.700448
546.052673	79.647934
546.210754	79.668045
546.368835	79.691360
546.526917	79.664458
546.684937	79.668976
546.843018	79.711466
547.001038	79.783343
547.159058	79.698315
547.317078	79.673894
547.475098	79.725923
547.633118	79.751358
547.791138	79.788749
547.949097	79.772242
548.107117	79.799929
548.265076	79.855242
548.423035	79.939176
548.580994	79.905601
548.738953	79.870743
548.896912	79.909471
549.054810	79.880670
549.212769	79.961008
549.370667	79.877755
549.528625	79.924850
549.686523	79.938027
549.844421	79.890126
550.002319	79.877351
550.160156	79.777969
550.318054	79.812343
550.475891	79.837426
550.633789	79.784584
550.791626	79.807693
550.949463	79.790463
551.107300	79.786057
551.265137	79.788402
551.422974	79.767879
551.580750	79.720486
551.738586	79.739279
551.896362	79.783088
552.054138	79.688612
552.211914	79.668339
552.369690	79.648645
552.527466	79.798696
552.685242	79.815338
552.842957	79.763581
553.000671	79.800646
553.158447	79.816802
553.316162	79.836363
553.473877	79.976820
553.631592	79.994720
553.789307	80.045604
553.946960	79.998403
554.104675	80.001133
554.262329	80.001381
554.419983	80.010720
554.577637	80.062870
554.735291	80.088372
554.892944	80.123626
555.050598	80.249076
555.208252	80.255632
555.365845	80.214730
555.523438	80.156508
555.681030	80.187940
555.838684	80.116705
555.996216	80.166668
556.153809	80.191256
556.311401	80.191866
556.468994	80.224510
556.626526	80.134323
556.784058	80.123269
556.941589	80.105805
557.099121	80.208349
557.256653	80.143247
557.414185	80.232792
557.571716	80.189434
557.729187	80.087632
557.886719	80.148408
558.044189	80.168360
558.201660	79.978192
558.359131	79.985505
558.516602	80.008943
558.674011	79.943900
558.831482	79.856118
558.988892	79.771288
559.146362	79.735511
559.303772	79.783751
559.461182	79.904899
559.618591	79.953655
559.776001	79.968566
559.933350	79.959790
560.090759	80.004184
560.248108	79.905118
560.405518	79.954131
560.562866	79.945483
560.720215	80.032169
560.877563	80.006734
561.034851	79.948599
561.192200	79.933366
561.349548	79.970427
561.506836	79.998611
561.664124	79.950646
561.821411	80.008291
561.978699	80.103958
562.135986	80.181055
562.293274	80.281408
562.450500	80.244207
562.607788	80.144891
562.765015	80.154245
562.922241	80.145023
563.079468	80.210909
563.236694	80.129573
563.393921	80.205465
563.551147	80.293531
563.708313	80.342598
563.865540	80.306972
564.022705	80.290116
564.179871	80.342515
564.337036	80.243010
564.494202	80.421200
564.651367	80.588196
564.808472	80.660766
564.965637	80.827846
565.122742	80.792112
565.279846	80.802320
565.436951	80.814928
565.594055	80.767245
565.751160	80.761060
565.908264	80.676398
566.065308	80.684549
566.222412	80.711017
566.379456	80.711294
566.536499	80.781058
566.693542	80.756446
566.850586	80.722338
567.007629	80.754188
567.164673	80.866950
567.321655	80.804430
567.478699	81.016928
567.635681	80.931980
567.792664	80.854268
567.949646	80.880834
568.106628	80.794794
568.263611	80.789030
568.420532	80.811754
568.577515	80.757700
568.734436	80.826472
568.891357	80.858369
569.048279	80.847929
569.205200	80.918161
569.362122	80.896123
569.518982	80.901514
569.675903	80.884630
569.832764	80.946000
569.989685	81.001006
570.146545	80.952227
570.303406	80.987011
570.460266	81.037939
570.617065	81.023149
570.773926	81.004462
570.930786	80.945733
571.087585	80.981787
571.244385	80.929666
571.401184	80.897804
571.557983	80.896522
571.714783	81.023402
571.871582	81.096889
572.028320	81.108805
572.185120	81.132016
572.341858	81.046996
572.498596	80.940016
572.655334	81.026374
572.812073	81.030486
572.968811	80.930655
573.125488	80.866431
573.282227	80.988465
573.438904	81.059386
573.595581	81.063119
573.752258	80.978178
573.908936	80.909272
574.065613	80.862907
574.222290	80.930930
574.378906	80.945023
574.535583	80.953546
574.692200	81.016619
574.848816	80.883512
575.005432	80.786202
575.162048	80.717087
575.318665	80.801737
575.475281	80.782445
575.631836	80.765887
575.788452	80.724814
575.945007	80.799179
576.101562	80.923259
576.258118	80.943495
576.414673	80.804590
576.571167	80.873486
576.727722	80.883852
576.884216	80.884037
577.040771	81.016924
577.197266	81.155033
577.353760	81.049391
577.510254	81.123989
577.666748	81.157557
577.823181	81.145790
577.979675	81.188735
578.136108	81.234349
578.292542	81.300010
578.449036	81.254954
578.605469	81.246888
578.761841	81.361763
578.918274	81.371293
579.074707	81.253182
579.231079	81.147534
579.387451	81.087800
579.543884	81.051789
579.700256	80.887657
579.856628	80.850389
580.012939	80.880312
580.169312	80.845363
580.325684	80.741999
580.481995	80.750590
580.638306	80.787991
580.794617	80.691948
580.950928	80.641630
581.107239	80.716591
581.263550	80.698238
581.419800	80.641753
581.576111	80.724344
581.732361	80.770328
581.888611	80.805423
582.044861	80.836129
582.201111	80.853120
582.357361	80.854948
582.513611	80.901512
582.669800	80.995393
582.826050	81.048670
582.982239	81.067999
583.138428	81.019239
583.294617	81.041197
583.450806	81.069117
583.606995	81.078477
583.763123	80.935288
583.919312	80.992443
584.075439	81.015706
584.231567	80.930514
584.387695	80.922764
584.543823	80.949939
584.699951	80.860099
584.856018	80.850249
585.012146	80.796906
585.168213	80.791003
585.324341	80.854048
585.480408	80.862522
585.636475	80.828998
585.792480	80.837992
585.948547	80.841591
586.104614	80.851275
586.260620	80.894361
586.416626	80.880226
586.572693	80.887442
586.728699	80.882061
586.884705	81.057212
587.040649	81.061860
587.196655	81.070833
587.352600	81.070651
587.508606	81.115911
587.664551	81.095951
587.820496	81.131994
587.976440	81.128934
588.132385	81.156556
588.288330	81.187397
588.444214	81.122811
588.600159	81.157796
588.756042	81.157848
588.911926	81.141832
589.067810	81.188528
589.223694	81.176484
589.379578	81.135980
589.535400	81.117514
589.691284	81.093456
589.847107	81.125896
590.002930	80.988195
590.158752	80.959424
590.314575	81.016099
590.470398	81.111959
590.626221	81.095596
590.781982	81.028768
590.937805	81.033332
591.093567	81.045116
591.249329	81.053013
591.405090	80.970931
591.560852	80.957320
591.716614	81.019384
591.872375	81.101310
592.028076	81.116561
592.183777	81.099571
592.339539	81.142265
592.495239	81.258207
592.650940	81.287390
592.806580	81.342583
592.962280	81.300605
593.117920	81.355836
593.273621	81.370279
593.429260	81.365581
593.584900	81.297182
593.740540	81.282890
593.896179	81.361879
594.051819	81.346718
594.207397	81.287882
594.363037	81.298648
594.518616	81.398826
594.674194	81.451291
594.829773	81.402628
594.985352	81.338956
595.140930	81.317062
595.296509	81.263790
595.452026	81.221273
595.607605	81.164167
595.763123	81.111187
595.918640	81.145189
596.074158	81.163011
596.229675	81.165805
596.385132	81.265604
596.540649	81.233572
596.696106	81.277156
596.851624	81.357117
597.007080	81.320448
597.162537	81.412055
597.317993	81.469567
597.473389	81.423409
597.628845	81.391511
597.784241	81.361687
597.939697	81.411017
598.095093	81.460157
598.250488	81.404600
598.405884	81.408314
598.561279	81.495937
598.716614	81.489722
598.872009	81.566798
599.027344	81.495923
599.182739	81.525353
599.338074	81.591565
599.493408	81.584040
599.648682	81.610152
599.804016	81.640917
599.959351	81.530412
600.114624	81.647500
600.269958	81.656495
600.425232	81.665342
600.580505	81.762172
600.735779	81.729856
600.890991	81.626967
601.046265	81.644252
601.201477	81.604206
601.356750	81.667652
601.511963	81.620046
601.667175	81.545967
601.822388	81.503664
601.977600	81.476753
602.132812	81.515006
602.287964	81.586008
602.443115	81.514257
602.598328	81.534062
602.753479	81.536677
602.908630	81.462186
603.063782	81.454203
603.218872	81.388720
603.374023	81.325664
603.529114	81.368089
603.684265	81.346146
603.839355	81.439385
603.994446	81.558078
604.149536	81.448135
604.304626	81.462366
604.459656	81.561479
604.614746	81.661653
604.769775	81.707934
604.924805	81.796336
605.079834	81.784166
605.234863	81.828551
605.389893	81.756511
605.544922	81.777167
605.699890	81.801349
605.854919	81.763866
606.009888	81.787835
606.164856	81.848014
606.319824	81.856359
606.474792	81.854180
606.629761	81.892853
606.784668	81.775772
606.939636	81.765726
607.094543	81.761933
607.249451	81.843737
607.404358	81.860581
607.559265	81.811618
607.714172	81.820241
607.869080	81.815128
608.023926	81.800833
608.178772	81.814487
608.333679	81.743594
608.488525	81.694658
608.643372	81.714636
608.798218	81.616702
608.953003	81.721103
609.107849	81.659024
609.262634	81.658019
609.417419	81.662096
609.572266	81.666959
609.726990	81.523925
609.881775	81.646307
610.036560	81.529561
610.191345	81.547728
610.346069	81.552872
610.500793	81.695582
610.655579	81.660101
610.810303	81.679503
610.964966	81.656173
611.119690	81.679730
611.274414	81.711089
611.429077	81.757088
611.583801	81.866183
611.738464	81.917319
611.893127	81.974895
612.047791	81.915505
612.202454	82.074198
612.357056	82.051764
612.511719	82.157808
612.666321	82.288934
612.820923	82.346974
612.975586	82.323165
613.130188	82.369705
613.284729	82.338813
613.439331	82.289878
613.593933	82.130040
613.748474	82.202429
613.903015	82.195605
614.057556	82.266478
614.212097	82.278431
614.366638	82.208112
614.521179	82.196838
614.675720	82.187522
614.830200	82.146366
614.984680	82.042773
615.139221	82.077488
615.293701	81.937352
615.448181	81.912013
615.602600	81.844676
615.757080	81.751654
615.911499	81.794312
616.065979	81.806877
616.220398	81.808031
616.374817	81.871916
616.529236	81.960559
616.683655	81.946835
616.838074	81.868866
616.992432	81.848809
617.146851	81.773719
617.301208	81.691662
617.455566	81.761384
617.609924	81.815730
617.764282	81.773800
617.918579	81.782204
618.072937	81.821269
618.227234	81.772974
618.381592	81.819113
618.535889	81.881043
618.690186	81.877187
618.844482	81.865146
618.998718	81.883384
619.153015	81.934512
619.307312	82.000236
619.461548	81.966344
619.615784	81.982848
619.770020	82.060721
619.924255	82.046599
620.078491	81.990288
620.232666	82.021171
620.386902	82.084180
620.541077	82.016253
620.695251	81.910987
620.849487	81.866812
621.003601	81.856661
621.157776	81.880914
621.311951	81.849294
621.466064	81.808522
621.620239	81.884443
621.774353	81.898928
621.928467	81.909094
622.082581	81.872942
622.236694	81.783635
622.390808	81.743968
622.544861	81.744712
622.698975	81.707786
622.853027	81.703101
623.007080	81.774074
623.161133	81.789161
623.315186	81.830620
623.469238	81.808432
623.623230	81.860430
623.777283	81.891852
623.931274	81.998626
624.085266	81.969707
624.239258	82.021906
624.393250	82.085181
624.547241	82.130827
624.701233	82.085679
624.855164	82.065056
625.009094	82.010322
625.163086	82.103643
625.317017	82.176532
625.470947	82.124755
625.624817	82.205510
625.778748	82.159796
625.932617	82.233070
626.086548	82.348347
626.240417	82.393586
626.394287	82.344897
626.548157	82.351527
626.702026	82.427897
626.855896	82.480513
627.009705	82.481253
627.163574	82.466193
627.317383	82.479920
627.471191	82.515600
627.625000	82.496910
627.778809	82.526331
627.932556	82.586612
628.086365	82.670679
628.240112	82.538750
628.393921	82.471416
628.547668	82.633477
628.701416	82.534062
628.855164	82.499699
629.008850	82.424658
629.162598	82.336881
629.316284	82.431395
629.470032	82.407431
629.623718	82.410734
629.777405	82.399503
629.931091	82.495245
630.084778	82.519094
630.238403	82.591543
630.392090	82.541222
630.545715	82.541226
630.699341	82.733061
630.852966	82.640839
631.006592	82.632106
631.160217	82.612081
631.313843	82.671355
631.467407	82.694742
631.620972	82.637360
631.774597	82.730977
631.928162	82.734990
632.081726	82.766502
632.235229	82.770409
632.388794	82.734045
632.542358	82.800603
632.695862	82.860172
632.849365	82.885602
633.002869	82.762426
633.156372	82.632287
633.309875	82.630413
633.463379	82.687078
633.616821	82.604595
633.770325	82.477869
633.923767	82.520336
634.077209	82.563563
634.230652	82.545869
634.384094	82.545801
634.537537	82.561205
634.690918	82.519587
634.844299	82.501645
634.997742	82.501523
635.151123	82.446164
635.304504	82.379913
635.457886	82.373065
635.611206	82.384208
635.764587	82.351132
635.917908	82.268565
636.071289	82.323866
636.224609	82.418077
636.377930	82.440183
636.531250	82.387614
636.684570	82.409154
636.837830	82.460880
636.991150	82.562824
637.144409	82.568298
637.297668	82.604900
637.450928	82.643449
637.604187	82.569745
637.757446	82.620677
637.910645	82.606760
638.063904	82.654855
638.217102	82.666254
638.370300	82.762094
638.523499	82.698340
638.676697	82.685530
638.829895	82.713381
638.983093	82.769246
639.136230	82.681843
639.289429	82.648386
639.442566	82.574328
639.595703	82.567663
639.748840	82.653525
639.901978	82.574596
640.055054	82.512646
640.208191	82.412967
640.361267	82.372703
640.514343	82.365457
640.667419	82.471266
640.820496	82.495942
640.973572	82.512876
641.126648	82.462241
641.279663	82.463548
641.432739	82.449205
641.585754	82.446090
641.738770	82.428023
641.891785	82.465454
642.044800	82.436987
642.197754	82.489253
642.350769	82.460126
642.503723	82.492517
642.656738	82.564257
642.809692	82.524923
642.962646	82.561759
643.115540	82.579354
643.268494	82.644210
643.421448	82.715872
643.574341	82.748379
643.727234	82.789222
643.880127	82.701057
644.033020	82.734321
644.185913	82.782716
644.338806	82.794848
644.491699	82.758097
644.644531	82.817720
644.797363	82.838311
644.950195	82.848456
645.103027	82.859886
645.255859	82.835055
645.408691	82.842236
645.561462	82.851944
645.714294	82.799623
645.867065	82.802517
646.019836	82.816752
646.172607	82.771683
646.325378	82.709072
646.478149	82.714586
646.630859	82.669684
646.783630	82.663363
646.936340	82.714923
647.089050	82.749998
647.241760	82.707458
647.394470	82.725551
647.547180	82.777374
647.699829	82.724929
647.852539	82.671691
648.005188	82.611167
648.157837	82.608291
648.310486	82.599160
648.463135	82.643348
648.615784	82.668541
648.768433	82.723480
648.921021	82.689392
649.073608	82.667357
649.226257	82.629741
649.378845	82.662889
649.531372	82.605295
649.683960	82.613156
649.836548	82.545987
649.989075	82.519701
650.141663	82.457188
650.294189	82.525405
650.446716	82.529338
650.599243	82.524369
650.751709	82.563146
650.904236	82.612355
651.056702	82.627985
651.209229	82.641024
651.361694	82.666017
651.514160	82.662311
651.666626	82.684046
651.819092	82.583336
651.971497	82.565101
652.123962	82.539624
652.276367	82.570115
652.428772	82.597493
652.581177	82.655011
652.733582	82.632304
652.885986	82.623690
653.038330	82.716759
653.190735	82.696562
653.343079	82.683875
653.495422	82.706894
653.647827	82.668720
653.800110	82.669374
653.952454	82.645496
654.104797	82.563889
654.257080	82.528864
654.409424	82.584490
654.561707	82.670047
654.713989	82.633241
654.866272	82.696336
655.018555	82.753553
655.170776	82.784635
655.323059	82.754096
655.475281	82.718979
655.627502	82.659091
655.779724	82.673856
655.931946	82.702761
656.084167	82.581540
656.236328	82.552306
656.388550	82.520044
656.540710	82.470284
656.692871	82.452755
656.845093	82.438689
656.997192	82.438147
657.149353	82.468537
657.301514	82.459231
657.453613	82.389268
657.605774	82.318644
657.757874	82.366639
657.909973	82.335984
658.062073	82.378280
658.214172	82.366209
658.366211	82.476301
658.518311	82.492734
658.670349	82.509931
658.822388	82.580704
658.974426	82.604377
659.126465	82.668468
659.278503	82.735899
659.430481	82.729175
659.582520	82.728343
659.734497	82.696763
659.886475	82.698152
660.038452	82.694660
660.190430	82.772078
660.342407	82.804923
660.494385	82.894733
660.646301	82.894774
660.798279	82.854564
660.950195	82.843285
661.102112	82.835138
661.254028	82.875509
661.405884	82.808432
661.557800	82.869849
661.709717	82.849463
661.861572	82.820760
662.013428	82.792970
662.165283	82.804721
662.317139	82.723563
662.468994	82.802019
662.620789	82.859256
662.772644	82.883924
662.924438	82.878932
663.076233	82.872514
663.228027	82.805559
663.379822	82.796381
663.531616	82.739071
663.683411	82.747461
663.835144	82.745449
663.986877	82.832244
664.138611	82.751224
664.290344	82.650639
664.442078	82.639286
664.593811	82.548190
664.745544	82.584344
664.897217	82.517113
665.048889	82.548858
665.200623	82.491402
665.352295	82.501765
665.503967	82.435012
665.655579	82.453349
665.807251	82.435397
665.958862	82.464179
666.110535	82.476249
666.262146	82.487165
666.413757	82.504400
666.565369	82.577417
666.716919	82.580999
666.868530	82.595804
667.020081	82.574515
667.171692	82.592049
667.323242	82.598073
667.474792	82.637230
667.626343	82.634729
667.777832	82.606597
667.929382	82.614100
668.080872	82.582859
668.232422	82.657625
668.383911	82.752117
668.535400	82.801639
668.686890	82.789281
668.838318	82.833709
668.989807	82.811368
669.141235	82.838250
669.292725	82.820959
669.444153	82.757539
669.595581	82.703549
669.747009	82.691686
669.898376	82.693760
670.049805	82.684541
670.201172	82.709383
670.352539	82.737717
670.503967	82.728198
670.655273	82.787123
670.806641	82.864998
670.958008	82.867952
671.109375	82.907606
671.260681	82.920166
671.411987	82.872442
671.563293	82.866274
671.714600	82.821516
671.865906	82.800316
672.017212	82.807380
672.168457	82.767215
672.319763	82.855730
672.471008	82.917577
672.622253	82.917120
672.773499	82.947440
672.924744	82.917128
673.075928	82.965979
673.227173	82.957385
673.378357	83.026672
673.529541	83.090419
673.680786	83.033788
673.831909	82.988531
673.983093	83.061985
674.134277	83.015723
674.285400	82.954721
674.436584	82.989264
674.587708	82.940215
674.738831	82.887131
674.889954	82.934956
675.041077	82.942575
675.192139	82.973960
675.343262	82.945635
675.494324	82.927823
675.645386	82.918643
675.796448	82.923106
675.947510	82.950636
676.098572	82.950831
676.249634	82.960353
676.400635	82.891892
676.551636	82.825020
676.702698	82.800975
676.853699	82.825702
677.004639	82.796184
677.155640	82.832559
677.306641	82.800651
677.457581	82.764838
677.608521	82.800319
677.759521	82.874795
677.910461	82.840543
678.061401	82.876944
678.212280	82.894058
678.363220	82.867710
678.514099	82.864485
678.664978	82.904478
678.815918	82.942112
678.966797	82.958278
679.117615	82.900954
679.268494	82.937233
679.419373	82.965762
679.570190	83.020805
679.721008	83.084028
679.871826	83.013487
680.022644	82.985258
680.173462	82.995736
680.324280	83.109318
680.475037	83.061678
680.625854	83.100019
680.776611	83.091492
680.927368	83.117162
681.078125	83.101891
681.228882	83.123358
681.379639	83.109551
681.530334	83.082371
681.681030	83.127998
681.831787	82.987151
681.982483	82.968153
682.133179	82.995920
682.283813	82.994878
682.434509	83.008880
682.585205	82.958659
682.735840	82.918740
682.886475	83.018315
683.037109	83.065841
683.187744	83.026920
683.338379	82.988409
683.488953	83.044816
683.639587	83.045034
683.790161	83.078703
683.940735	83.065353
684.091309	83.041083
684.241882	83.025276
684.392456	82.986795
684.543030	83.042700
684.693542	82.983045
684.844055	83.003901
684.994568	83.017881
685.145081	83.006115
685.295593	82.965529
685.446106	82.953365
685.596619	82.920951
685.747070	82.922791
685.897522	82.873847
686.047974	82.830234
686.198425	82.876986
686.348877	82.881100
686.499329	82.892856
686.649719	82.883237
686.800171	82.863185
686.950562	82.857803
687.100952	82.847869
687.251343	82.882894
687.401733	82.932308
687.552124	82.908358
687.702454	82.912375
687.852783	82.992422
688.003174	83.040410
688.153503	83.028344
688.303833	83.061413
688.454102	83.068399
688.604431	83.141291
688.754700	83.158513
688.905029	83.156771
689.055298	83.163840
689.205566	83.155464
689.355835	83.154348
689.506104	83.155774
689.656311	83.145373
689.806580	83.126684
689.956787	83.139006
690.106995	83.165970
690.257202	83.153672
690.407410	83.176116
690.557617	83.143954
690.707764	83.155351
690.857971	83.170518
691.008118	83.127943
691.158264	83.110827
691.308411	83.079592
691.458557	83.089700
691.608704	83.067942
691.758789	83.118266
691.908936	83.137944
692.059021	83.180385
692.209106	83.161668
692.359192	83.218374
692.509277	83.218155
692.659302	83.234355
692.809387	83.260404
692.959412	83.252510
693.109436	83.215463
693.259460	83.174402
693.409485	83.141895
693.559509	83.167894
693.709534	83.145364
693.859497	83.135754
694.009521	83.127561
694.159485	83.088494
694.309448	83.099698
694.459412	83.090935
694.609314	83.147589
694.759277	83.117823
694.909180	83.120076
695.059143	83.087657
695.209045	83.112511
695.358948	82.954363
695.508850	82.938129
695.658691	82.927732
695.808594	82.917765
695.958435	82.886790
696.108337	82.946122
696.258179	82.931555
696.408020	82.969917
696.557800	82.992874
696.707642	82.997398
696.857483	82.959536
697.007263	82.970952
697.157043	83.053613
697.306824	83.044717
697.456604	83.036103
697.606384	82.986494
697.756165	82.976544
697.905884	83.009049
698.055603	83.013491
698.205383	82.997935
698.355103	83.111040
698.504822	83.134114
698.654480	83.096452
698.804199	83.129491
698.953857	83.165054
699.103577	83.130882
699.253235	83.158005
699.402893	83.154174
699.552551	83.131746
699.702148	83.158671
699.851807	83.184672
700.001404	83.144275
700.151062	83.137694
700.300659	83.147315
700.450256	83.131417
700.599792	83.104886
700.749390	83.135657
700.898987	83.077068
701.048523	83.076307
701.198059	83.105935
701.347595	83.084937
701.497131	83.054107
701.646667	83.057974
701.796204	83.023577
701.945679	83.016887
702.095154	83.053428
702.244690	83.111703
702.394165	83.139526
702.543640	83.169565
702.693054	83.166729
702.842529	83.176398
702.991943	83.195826
703.141418	83.152525
703.290833	83.208803
703.440247	83.170423
703.589661	83.164856
703.739014	83.177229
703.888428	83.166936
704.037781	83.217542
704.187134	83.218481
704.336487	83.176496
704.485840	83.159590
704.635193	83.173257
704.784546	83.186780
704.933838	83.179540
705.083191	83.174308
705.232483	83.038349
705.381775	82.990768
705.531067	82.945480
705.680359	82.913703
705.829590	82.904173
705.978882	82.887228
706.128113	82.982194
706.277344	82.965927
706.426575	83.042853
706.575806	83.051598
706.725037	82.991353
706.874207	82.985562
707.023438	82.939947
707.172607	82.959447
707.321777	83.005315
707.470947	83.031043
707.620117	82.980681
707.769287	82.990218
707.918396	83.012461
708.067505	83.029661
708.216675	83.085032
708.365784	83.099010
708.514893	83.142438
708.663940	83.117676
708.813049	83.126531
708.962097	83.108202
709.111206	82.999810
709.260254	82.998438
709.409302	82.953201
709.558350	82.966254
709.707397	82.970846
709.856384	82.952591
710.005432	82.975443
710.154419	82.915081
710.303406	82.907557
710.452393	82.875352
710.601379	82.941257
710.750305	82.950462
710.899292	82.976442
711.048218	82.954624
711.197205	82.967348
711.346130	82.963249
711.495056	82.940507
711.643921	82.969635
711.792847	82.953013
711.941711	82.996462
712.090637	83.094375
712.239502	83.086598
712.388367	83.058046
712.537231	83.104683
712.686096	83.151998
712.834900	83.219118
712.983765	83.164937
713.132568	83.194917
713.281372	83.238203
713.430176	83.269678
713.578979	83.302602
713.727722	83.275511
713.876526	83.251450
714.025269	83.233895
714.174072	83.238443
714.322815	83.280378
714.471558	83.318806
714.620239	83.318991
714.768982	83.318312
714.917664	83.355318
715.066406	83.305083
715.215088	83.276617
715.363770	83.368677
715.512451	83.321486
715.661072	83.325915
715.809753	83.328727
715.958374	83.326449
716.107056	83.311263
716.255676	83.261648
716.404297	83.275318
716.552917	83.249872
716.701477	83.278879
716.850098	83.242856
716.998657	83.280511
717.147217	83.271271
717.295776	83.199366
717.444336	83.174193
717.592896	83.222395
717.741455	83.216318
717.889954	83.205807
718.038513	83.214055
718.187012	83.248523
718.335510	83.210903
718.484009	83.194056
718.632446	83.158160
718.780945	83.194209
718.929382	83.262214
719.077881	83.223514
719.226318	83.261801
719.374756	83.304880
719.523132	83.316603
719.671570	83.285187
719.820007	83.354193
719.968384	83.319024
720.116760	83.323144
720.265137	83.376847
720.413513	83.374968
720.561890	83.327224
720.710205	83.390682
720.858582	83.392062
721.006897	83.423148
721.155212	83.483189
721.303528	83.528383
721.451843	83.584643
721.600159	83.597743
721.748413	83.562301
721.896729	83.506906
722.044983	83.547549
722.193237	83.552944
722.341492	83.505392
722.489746	83.529012
722.637939	83.483424
722.786194	83.423005
722.934387	83.402612
723.082581	83.423080
723.230774	83.420684
723.378967	83.438631
723.527161	83.482873
723.675354	83.479415
723.823486	83.468713
723.971619	83.454689
724.119751	83.438639
724.267883	83.378319
724.416016	83.336734
724.564148	83.359348
724.712219	83.320826
724.860352	83.382256
725.008423	83.399076
725.156494	83.391037
725.304565	83.433657
725.452637	83.370806
725.600647	83.477493
725.748718	83.526945
725.896729	83.584941
726.044739	83.564289
726.192749	83.586878
726.340759	83.558888
726.488770	83.559261
726.636719	83.531929
726.784729	83.557041
726.932678	83.591354
727.080627	83.563352
727.228577	83.576087
727.376526	83.585155
727.524414	83.550500
727.672363	83.580744
727.820251	83.583465
727.968140	83.585879
728.116028	83.567417
728.263916	83.575471
728.411804	83.611654
728.559631	83.580284
728.707520	83.585625
728.855347	83.561063
729.003174	83.561999
729.151001	83.535722
729.298828	83.587767
729.446594	83.585705
729.594421	83.588818
729.742188	83.578332
729.890015	83.531608
730.037781	83.528534
730.185486	83.521032
730.333252	83.506142
730.481018	83.526879
730.628723	83.525223
730.776428	83.498911
730.924194	83.495791
731.071899	83.474568
731.219543	83.436144
731.367249	83.466966
731.514954	83.490582
731.662598	83.460371
731.810242	83.451794
731.957886	83.473030
732.105530	83.452462
732.253174	83.461948
732.400818	83.447567
732.548401	83.413141
732.695984	83.440953
732.843567	83.474438
732.991150	83.455748
733.138733	83.511679
733.286316	83.574365
733.433838	83.563248
733.581421	83.550224
733.728943	83.547980
733.876465	83.516125
734.023987	83.518414
734.171509	83.505612
734.318970	83.496003
734.466492	83.475747
734.613953	83.499800
734.761414	83.510549
734.908875	83.510688
735.056335	83.524747
735.203796	83.476829
735.351196	83.492998
735.498657	83.517099
735.646057	83.513759
735.793457	83.499166
735.940857	83.541794
736.088257	83.512863
736.235657	83.498921
736.382996	83.514481
736.530334	83.545841
736.677734	83.537142
736.825073	83.612671
736.972351	83.646767
737.119690	83.674729
737.267029	83.676919
737.414307	83.660575
737.561584	83.641590
737.708862	83.668159
737.856140	83.689189
738.003418	83.732212
738.150696	83.724469
738.297913	83.708550
738.445190	83.675992
738.592407	83.674289
738.739624	83.679550
738.886841	83.663002
739.033997	83.718712
739.181213	83.715685
739.328369	83.727947
739.475586	83.729082
739.622742	83.738001
739.769897	83.685595
739.916992	83.666549
740.064148	83.639301
740.211304	83.624824
740.358398	83.645215
740.505493	83.666560
740.652588	83.642278
740.799683	83.652864
740.946777	83.583110
741.093811	83.606154
741.240906	83.576561
741.387939	83.622211
741.534973	83.637207
741.682007	83.607370
741.829041	83.592847
741.976013	83.537874
742.123047	83.523459
742.270020	83.521035
742.416992	83.513549
742.563965	83.525414
742.710938	83.547160
742.857910	83.532252
743.004883	83.600260
743.151794	83.601548
743.298706	83.629155
743.445618	83.624027
743.592529	83.604694
743.739441	83.562633
743.886353	83.617886
744.033203	83.673301
744.180115	83.760669
744.326965	83.747815
744.473816	83.692347
744.620667	83.700219
744.767456	83.729384
744.914307	83.751606
745.061096	83.799201
745.207947	83.815828
745.354736	83.831503
745.501526	83.844303
745.648254	83.876876
745.795044	83.907071
745.941833	83.855160
746.088562	83.831093
746.235291	83.750759
746.382019	83.743969
746.528748	83.771519
746.675476	83.784982
746.822144	83.793971
746.968872	83.756044
747.115540	83.726818
747.262207	83.713037
747.408875	83.764650
747.555542	83.797311
747.702148	83.805759
747.848816	83.782963
747.995422	83.809549
748.142029	83.769753
748.288635	83.709664
748.435242	83.682839
748.581848	83.606487
748.728394	83.596535
748.875000	83.594643
749.021545	83.616438
749.168091	83.681897
749.314636	83.703492
749.461182	83.712976
749.607666	83.752195
749.754211	83.710010
749.900696	83.735947
750.047180	83.736768
750.193665	83.760566
750.340149	83.762554
750.486633	83.773822
750.633057	83.754523
750.779541	83.777362
750.925964	83.729312
751.072388	83.760914
751.218811	83.804514
751.365234	83.843543
751.511597	83.886251
751.658020	83.882539
751.804382	83.919790
751.950745	83.929213
752.097107	83.915449
752.243469	83.910719
752.389832	83.896959
752.536133	83.863336
752.682495	83.906362
752.828796	83.820726
752.975098	83.809991
753.121399	83.821515
753.267639	83.744958
753.413940	83.709959
753.560181	83.725440
753.706482	83.697022
753.852722	83.691870
753.998962	83.708912
754.145203	83.762409
754.291382	83.698908
754.437622	83.722632
754.583801	83.725802
754.729980	83.658263
754.876160	83.708520
755.022339	83.699414
755.168518	83.678798
755.314697	83.653854
755.460815	83.646649
755.606934	83.610388
755.753052	83.688280
755.899170	83.696537
756.045288	83.645126
756.191406	83.706220
756.337463	83.701554
756.483521	83.721282
756.629639	83.753044
756.775696	83.756347
756.921692	83.721275
757.067749	83.648901
757.213806	83.705006
757.359802	83.704969
757.505798	83.695409
757.651794	83.728540
757.797791	83.680639
757.943787	83.692435
758.089783	83.706026
758.235718	83.728863
758.381653	83.782598
758.527588	83.816947
758.673523	83.814776
758.819458	83.829361
758.965393	83.896091
759.111267	83.914644
759.257202	83.945760
759.403076	83.911888
759.548950	83.935413
759.694824	83.912039
759.840698	83.970728
759.986511	84.036276
760.132385	83.993849
760.278198	83.959716
760.424011	83.983462
760.569824	84.037352
760.715637	84.021178
760.861389	84.023805
761.007202	83.997607
761.152954	84.008829
761.298706	83.989832
761.444458	83.994242
761.590210	83.958864
761.735962	83.919520
761.881653	83.906340
762.027405	83.872948
762.173096	83.829341
762.318787	83.793216
762.464478	83.725564
762.610168	83.714605
762.755798	83.681588
762.901489	83.661423
763.047119	83.720732
763.192749	83.736279
763.338379	83.735842
763.484009	83.734102
763.629639	83.767903
763.775208	83.755702
763.920837	83.796933
764.066406	83.801704
764.211975	83.778850
764.357544	83.783034
764.503052	83.766801
764.648621	83.780838
764.794128	83.790097
764.939697	83.797956
765.085205	83.831171
765.230713	83.814821
765.376221	83.826933
765.521667	83.847875
765.667175	83.827518
765.812622	83.822214
765.958069	83.808510
766.103516	83.815649
766.248962	83.846620
766.394409	83.808869
766.539795	83.815868
766.685181	83.819059
766.830627	83.786859
766.976013	83.773240
767.121399	83.777729
767.266724	83.748680
767.412109	83.765433
767.557434	83.764635
767.702820	83.741043
767.848145	83.769607
767.993469	83.781115
768.138733	83.857800
768.284058	83.867763
768.429382	83.891991
768.574646	83.885416
768.719910	83.907693
768.865173	83.887959
769.010437	83.893684
769.155701	83.864138
769.300903	83.880260
769.446167	83.864492
769.591370	83.853450
769.736572	83.858880
769.881775	83.865033
770.026978	83.834688
770.172119	83.847155
770.317322	83.885328
770.462463	83.886641
770.607605	83.894871
770.752747	83.894586
770.897888	83.901199
771.042969	83.857861
771.188110	83.884098
771.333191	83.872613
771.478271	83.843875
771.623352	83.815855
771.768433	83.827382
771.913513	83.800005
772.058533	83.778143
772.203613	83.770724
772.348633	83.786036
772.493652	83.830459
772.638672	83.855146
772.783691	83.845151
772.928650	83.889082
773.073669	83.894224
773.218628	83.880741
773.363586	83.850158
773.508545	83.863530
773.653503	83.847413
773.798462	83.826254
773.943359	83.831063
774.088257	83.851079
774.233215	83.842460
774.378113	83.900141
774.522949	83.912033
774.667847	83.890967
774.812744	83.878270
774.957581	83.940913
775.102417	83.910901
775.247253	83.860078
775.392090	83.810751
775.536926	83.798321
775.681763	83.809910
775.826538	83.809274
775.971313	83.780401
776.116089	83.782714
776.260864	83.866426
776.405640	83.866199
776.550415	83.883437
776.695129	83.881742
776.839905	83.883234
776.984619	83.880213
777.129333	83.887361
777.274048	83.897584
777.418701	83.876914
777.563416	83.891016
777.708069	83.936205
777.852722	83.900907
777.997375	83.932608
778.142029	83.972282
778.286682	84.043402
778.431335	84.026415
778.575928	84.017239
778.720520	84.036180
778.865112	84.065604
779.009705	84.037036
779.154297	83.968457
779.298889	84.001152
779.443420	83.993373
779.588013	84.003262
779.732544	84.020441
779.877075	83.990226
780.021606	83.963214
780.166077	84.009213
780.310608	84.069381
780.455078	84.088817
780.599548	84.120495
780.744019	84.155353
780.888489	84.165639
781.032959	84.194605
781.177429	84.149255
781.321838	84.208405
781.466248	84.238211
781.610657	84.236479
781.755066	84.235645
781.899475	84.223734
782.043884	84.258129
782.188232	84.180394
782.332581	84.168335
782.476929	84.158997
782.621277	84.150449
782.765625	84.189363
782.909973	84.256484
783.054260	84.247495
783.198608	84.237679
783.342896	84.236618
783.487183	84.235329
783.631470	84.219605
783.775696	84.177572
783.919983	84.125505
784.064209	84.156963
784.208435	84.091107
784.352722	84.096153
784.496887	84.086982
784.641113	84.089152
784.785339	84.117230
784.929504	84.094059
785.073669	84.115683
785.217896	84.157523
785.362000	84.158692
785.506165	84.176402
785.650330	84.162126
785.794434	84.167954
785.938599	84.128828
786.082703	84.073375
786.226807	84.076249
786.370911	84.033457
786.514954	84.009906
786.659058	84.069603
786.803101	84.127638
786.947144	84.127979
787.091187	84.137658
787.235229	84.107410
787.379272	84.116927
787.523254	84.129821
787.667297	84.134791
787.811279	84.163217
787.955261	84.212292
788.099243	84.183177
788.243225	84.209788
788.387146	84.195912
788.531128	84.207121
788.675049	84.136682
788.818970	84.148298
788.962891	84.211634
789.106812	84.240966
789.250671	84.216833
789.394592	84.250463
789.538452	84.203189
789.682312	84.158101
789.826172	84.177829
789.970032	84.207777
790.113892	84.249576
790.257690	84.236160
790.401550	84.237022
790.545349	84.242711
790.689148	84.269882
790.832947	84.226408
790.976685	84.213077
791.120483	84.172603
791.264221	84.161273
791.408020	84.119876
791.551758	84.125770
791.695435	84.116834
791.839172	84.068469
791.982910	84.055237
792.126587	84.086026
792.270264	84.060839
792.414001	84.117295
792.557617	84.145905
792.701294	84.119063
792.844971	84.140202
792.988586	84.129649
793.132263	84.137281
793.275879	84.144308
793.419495	84.185898
793.563110	84.146849
793.706665	84.122739
793.850281	84.133548
793.993835	84.154193
794.137390	84.196905
794.280945	84.230076
794.424500	84.218579
794.568054	84.252722
794.711548	84.278974
794.855103	84.270920
794.998596	84.292459
795.142090	84.260754
795.285583	84.202684
795.429016	84.165594
795.572510	84.158409
795.715942	84.111552
795.859436	84.131885
796.002869	84.075106
796.146301	84.067691
796.289673	84.029268
796.433105	84.061818
796.576477	84.101942
796.719910	84.099809
796.863281	84.093787
797.006653	84.067286
797.149963	84.019736
797.293335	84.076031
797.436707	84.051465
797.580017	83.990788
797.723328	84.003409
797.866638	83.997752
798.009949	84.037434
798.153198	84.093043
798.296509	84.089356
798.439758	84.064814
798.583008	84.124575
798.726257	84.098656
798.869507	84.144503
799.012756	84.138478
799.156006	84.117845
799.299194	84.121967
799.442383	84.169672
799.585571	84.177438
799.728760	84.241332
799.871948	84.222826
800.015076	84.303039
800.158264	84.312704
800.301392	84.313426
800.444519	84.328266
800.587646	84.319065
800.730774	84.275984
800.873840	84.281724
801.016968	84.267185
801.160034	84.328287
801.303101	84.341549
801.446167	84.320378
801.589233	84.359360
801.732239	84.394294
801.875305	84.401616
802.018311	84.443047
802.161316	84.431001
802.304321	84.424328
802.447327	84.385203
802.590332	84.340335
802.733276	84.366311
802.876282	84.284333
803.019226	84.281111
803.162170	84.286331
803.305115	84.318121
803.447998	84.330226
803.590942	84.319097
803.733826	84.304989
803.876709	84.271018
804.019592	84.232914
804.162476	84.255922
804.305359	84.245617
804.448181	84.177387
804.591064	84.128992
804.733887	84.085916
804.876709	84.060833
805.019531	84.050560
805.162354	84.031222
805.305115	84.056398
805.447937	84.076618
805.590698	84.092321
805.733459	84.194070
805.876221	84.178743
806.018982	84.179100
806.161682	84.137397
806.304443	84.080796
806.447144	84.139862
806.589844	84.144959
806.732544	84.185256
806.875244	84.203277
807.017883	84.206174
807.160583	84.238582
807.303223	84.288343
807.445862	84.278101
807.588501	84.321797
807.731140	84.326108
807.873779	84.331054
808.016357	84.304472
808.158936	84.313276
808.301575	84.295114
808.444153	84.311198
808.586670	84.226447
808.729248	84.194362
808.871826	84.161202
809.014343	84.183082
809.156860	84.206126
809.299377	84.204214
809.441895	84.200718
809.584412	84.130862
809.726868	84.094204
809.869385	84.099968
810.011841	84.070646
810.154297	84.045072
810.296753	84.082289
810.439148	84.105973
810.581604	84.175033
810.723999	84.161546
810.866455	84.178753
811.008850	84.213336
811.151184	84.251306
811.293579	84.255966
811.435974	84.280598
811.578308	84.277433
811.720642	84.271909
811.863037	84.337896
812.005310	84.348119
812.147644	84.305766
812.289978	84.308801
812.432251	84.390297
812.574524	84.412171
812.716858	84.436792
812.859070	84.450404
813.001343	84.441853
813.143616	84.478449
813.285828	84.467047
813.428101	84.422995
813.570312	84.429527
813.712524	84.454231
813.854675	84.435164
813.996887	84.416094
814.139099	84.396155
814.281250	84.425187
814.423401	84.440914
814.565552	84.480564
814.707703	84.490769
814.849792	84.495805
814.991943	84.517740
815.134033	84.529758
815.276123	84.517854
815.418213	84.490724
815.560303	84.370121
815.702393	84.362545
815.844421	84.372112
815.986511	84.323904
816.128540	84.291400
816.270569	84.282455
816.412598	84.289328
816.554565	84.259200
816.696594	84.275845
816.838562	84.247270
816.980591	84.256662
817.122559	84.221083
817.264465	84.221981
817.406433	84.198482
817.548401	84.139445
817.690308	84.108575
817.832214	84.096081
817.974121	84.097661
818.116028	84.079971
818.257935	84.104069
818.399780	84.196692
818.541687	84.223781
818.683533	84.244760
818.825378	84.243254
818.967224	84.257238
819.109070	84.257450
819.250854	84.261357
819.392700	84.282034
819.534485	84.209296
819.676270	84.222675
819.818054	84.139071
819.959839	84.137874
820.101562	84.111100
820.243347	84.149722
820.385071	84.149474
820.526794	84.219539
820.668518	84.222617
820.810242	84.208646
820.951904	84.202685
821.093628	84.199359
821.235291	84.188734
821.376953	84.136891
821.518616	84.145662
821.660278	84.189206
821.801880	84.179652
821.943542	84.158670
822.085144	84.174183
822.226746	84.157900
822.368347	84.200208
822.509949	84.205231
822.651550	84.244452
822.793091	84.281773
822.934631	84.348596
823.076233	84.314001
823.217773	84.368948
823.359253	84.360465
823.500793	84.418911
823.642273	84.424688
823.783813	84.439111
823.925293	84.436517
824.066772	84.423800
824.208252	84.488154
824.349670	84.479546
824.491150	84.484518
824.632568	84.482651
824.773987	84.501522
824.915405	84.517291
825.056824	84.548155
825.198242	84.546699
825.339600	84.538133
825.481018	84.605030
825.622375	84.602497
825.763733	84.567170
825.905029	84.601865
826.046387	84.557389
826.187744	84.538546
826.329041	84.495975
826.470337	84.480606
826.611633	84.561996
826.752930	84.571119
826.894226	84.599868
827.035461	84.599605
827.176758	84.588408
827.317993	84.569310
827.459229	84.619001
827.600464	84.595273
827.741638	84.577729
827.882874	84.594491
828.024048	84.615750
828.165222	84.626367
828.306396	84.595573
828.447571	84.597932
828.588745	84.648189
828.729858	84.566571
828.871033	84.605453
829.012146	84.584454
829.153259	84.616800
829.294373	84.595880
829.435486	84.480626
829.576538	84.453405
829.717590	84.389478
829.858704	84.316514
829.999756	84.365326
830.140808	84.345375
830.281799	84.280434
830.422852	84.320892
830.563843	84.270269
830.704834	84.202688
830.845825	84.200951
830.986816	84.190055
831.127808	84.169052
831.268799	84.133425
831.409729	84.129308
831.550659	84.187621
831.691589	84.135169
831.832520	84.127900
831.973450	84.115814
832.114319	84.218610
832.255249	84.312795
832.396118	84.372499
832.536987	84.476841
832.677856	84.520284
832.818726	84.485681
832.959534	84.503163
833.100342	84.518804
833.241211	84.538837
833.382019	84.587978
833.522827	84.613157
833.663574	84.625963
833.804382	84.651385
833.945129	84.627831
834.085876	84.651083
834.226685	84.652875
834.367371	84.650365
834.508118	84.665290
834.648865	84.699961
834.789551	84.649482
834.930237	84.590799
835.070923	84.543966
835.211609	84.523704
835.352295	84.436631
835.492981	84.386232
835.633606	84.407941
835.774231	84.411082
835.914856	84.388523
836.055481	84.362866
836.196106	84.348917
836.336670	84.332978
836.477295	84.333197
836.617859	84.282523
836.758423	84.333026
836.898987	84.313156
837.039551	84.311017
837.180054	84.354884
837.320618	84.380486
837.461121	84.379644
837.601624	84.434931
837.742126	84.422485
837.882629	84.384239
838.023071	84.366711
838.163574	84.448718
838.304016	84.507250
838.444458	84.441224
838.584900	84.422550
838.725281	84.447771
838.865723	84.473047
839.006104	84.489099
839.146545	84.537516
839.286926	84.497133
839.427307	84.531302
839.567627	84.511575
839.708008	84.538656
839.848328	84.503345
839.988647	84.476644
840.128967	84.461048
840.269287	84.497925
840.409607	84.485246
840.549927	84.579736
840.690186	84.597271
840.830444	84.584135
840.970703	84.510064
841.110962	84.496389
841.251221	84.542098
841.391418	84.487630
841.531677	84.531423
841.671875	84.483248
841.812073	84.472144
841.952271	84.444855
842.092468	84.479021
842.232605	84.510080
842.372803	84.537102
842.512939	84.518692
842.653076	84.590246
842.793213	84.564495
842.933289	84.537280
843.073425	84.509203
843.213501	84.546196
843.353638	84.459670
843.493713	84.507817
843.633789	84.502249
843.773804	84.512897
843.913879	84.498118
844.053894	84.519852
844.193909	84.592253
844.333923	84.512393
844.473938	84.572884
844.613953	84.542350
844.753906	84.520354
844.893921	84.532253
845.033875	84.458352
845.173828	84.449736
845.313782	84.427024
845.453735	84.315931
845.593628	84.309932
845.733582	84.322409
845.873474	84.318632
846.013367	84.272115
846.153259	84.309772
846.293091	84.289625
846.432983	84.357284
846.572815	84.365104
846.712646	84.385332
846.852478	84.384741
846.992310	84.351083
847.132141	84.409070
847.271912	84.351221
847.411743	84.365125
847.551514	84.407369
847.691284	84.370305
847.831055	84.415364
847.970764	84.369498
848.110535	84.426990
848.250244	84.520696
848.389954	84.557700
848.529663	84.561497
848.669373	84.561204
848.809082	84.554762
848.948730	84.561411
849.088440	84.542612
849.228088	84.524399
849.367737	84.522173
849.507385	84.525544
849.646973	84.549067
849.786621	84.533021
849.926208	84.545642
850.065796	84.518320
850.205383	84.543546
850.344971	84.543765
850.484558	84.589464
850.624084	84.599334
850.763611	84.667289
850.903198	84.676315
851.042725	84.637284
851.182190	84.611108
851.321716	84.657467
851.461182	84.649752
851.600708	84.660681
851.740173	84.670046
851.879639	84.679421
852.019104	84.637522
852.158508	84.703541
852.297974	84.673317
852.437378	84.625369
852.576782	84.706100
852.716187	84.705499
852.855591	84.797688
852.994934	84.804723
853.134338	84.813896
853.273682	84.768545
853.413025	84.751297
853.552368	84.769026
853.691711	84.748937
853.830994	84.786481
853.970337	84.817546
854.109619	84.758590
854.248901	84.759580
854.388184	84.746144
854.527466	84.692313
854.666687	84.658615
854.805969	84.717890
854.945190	84.694493
855.084412	84.742566
855.223633	84.786700
855.362854	84.716209
855.502014	84.728291
855.641235	84.693088
855.780396	84.675565
855.919556	84.660129
856.058716	84.661677
856.197876	84.665930
856.336975	84.609417
856.476135	84.618332
856.615234	84.568874
856.754333	84.590161
856.893433	84.587343
857.032471	84.562125
857.171570	84.599059
857.310608	84.634537
857.449646	84.654757
857.588745	84.638762
857.727722	84.621647
857.866760	84.642793
858.005798	84.540287
858.144775	84.563246
858.283752	84.517447
858.422729	84.525106
858.561707	84.487011
858.700684	84.532703
858.839600	84.553293
858.978516	84.556145
859.117493	84.569176
859.256409	84.556930
859.395264	84.556288
859.534180	84.532298
859.673096	84.539374
859.811951	84.517138
859.950806	84.487777
860.089661	84.476262
860.228516	84.481661
860.367310	84.443619
860.506165	84.424461
860.644958	84.377634
860.783752	84.465561
860.922546	84.479863
861.061340	84.506847
861.200134	84.482506
861.338867	84.534916
861.477600	84.491864
861.616333	84.480611
