# Wavelength (nm)	Smoothed Intensity
299.383362	22.897009
299.552002	23.132599
299.720612	23.385237
299.889191	23.614794
300.057800	23.863148
300.226379	24.124659
300.394958	24.377845
300.563538	24.615384
300.732117	24.855282
300.900696	25.092767
301.069244	25.340000
301.237793	25.597751
301.406342	25.833972
301.574890	26.069685
301.743408	26.324260
301.911957	26.580769
302.080475	26.837053
302.248993	27.066347
302.417480	27.324109
302.585999	27.569132
302.754486	27.826417
302.922974	28.067512
303.091461	28.313637
303.259949	28.559523
303.428436	28.793660
303.596893	29.026567
303.765350	29.269256
303.933807	29.528210
304.102264	29.776987
304.270691	30.019705
304.439117	30.254226
304.607574	30.496416
304.776001	30.710402
304.944397	30.966591
305.112823	31.174574
305.281219	31.403429
305.449615	31.635330
305.618011	31.864616
305.786407	32.102402
305.954773	32.327155
306.123169	32.555877
306.291534	32.788704
306.459900	33.007287
306.628235	33.213258
306.796600	33.435141
306.964935	33.661520
307.133270	33.875670
307.301605	34.087639
307.469940	34.308635
307.638245	34.516779
307.806580	34.730249
307.974884	34.926771
308.143188	35.137027
308.311462	35.326118
308.479767	35.533909
308.648041	35.753445
308.816315	35.954811
308.984589	36.159909
309.152863	36.363723
309.321106	36.558079
309.489380	36.750199
309.657623	36.948671
309.825867	37.151844
309.994080	37.358074
310.162323	37.568292
310.330536	37.755948
310.498749	37.963774
310.666962	38.147053
310.835175	38.313869
311.003357	38.505416
311.171539	38.685708
311.339752	38.880090
311.507904	39.077505
311.676086	39.250457
311.844238	39.426304
312.012421	39.591999
312.180573	39.753758
312.348724	39.913470
312.516846	40.073984
312.684998	40.250567
312.853119	40.412766
313.021240	40.563497
313.189362	40.727348
313.357452	40.885115
313.525574	41.029379
313.693665	41.186305
313.861755	41.309496
314.029846	41.452438
314.197937	41.617384
314.365997	41.769022
314.534058	41.920322
314.702118	42.060149
314.870178	42.206744
315.038239	42.365330
315.206268	42.529646
315.374298	42.673647
315.542328	42.825421
315.710358	42.983678
315.878357	43.125827
316.046387	43.263635
316.214386	43.396628
316.382385	43.537746
316.550385	43.672156
316.718353	43.816550
316.886353	43.939912
317.054321	44.076152
317.222290	44.215264
317.390259	44.368100
317.558197	44.515720
317.726135	44.630548
317.894104	44.757997
318.062012	44.907341
318.229950	45.026187
318.397888	45.152793
318.565796	45.266541
318.733704	45.386735
318.901611	45.478157
319.069519	45.592942
319.237396	45.692357
319.405304	45.801596
319.573181	45.934704
319.741058	46.031754
319.908905	46.128217
320.076782	46.223113
320.244629	46.342207
320.412476	46.428844
320.580322	46.533527
320.748169	46.628079
320.915985	46.707422
321.083801	46.826788
321.251617	46.919651
321.419434	47.004109
321.587250	47.106033
321.755035	47.186444
321.922821	47.278390
322.090607	47.369291
322.258392	47.497643
322.426178	47.603450
322.593933	47.716642
322.761719	47.807840
322.929474	47.900471
323.097198	48.019109
323.264954	48.118868
323.432678	48.221324
323.600403	48.323392
323.768127	48.424457
323.935852	48.513085
324.103577	48.592221
324.271271	48.675846
324.438965	48.747347
324.606659	48.824348
324.774353	48.902466
324.942047	48.974723
325.109711	49.051597
325.277374	49.125500
325.445038	49.202784
325.612701	49.268373
325.780334	49.322642
325.947968	49.394595
326.115631	49.483574
326.283234	49.564142
326.450867	49.621071
326.618500	49.704845
326.786102	49.768214
326.953705	49.811984
327.121307	49.896032
327.288879	49.969710
327.456482	50.053058
327.624054	50.119602
327.791626	50.186577
327.959198	50.248302
328.126770	50.314832
328.294312	50.390403
328.461853	50.471670
328.629395	50.550399
328.796936	50.604170
328.964478	50.682877
329.131989	50.762148
329.299500	50.831603
329.467010	50.896589
329.634521	50.941475
329.802002	51.024068
329.969513	51.097919
330.136993	51.178998
330.304474	51.257693
330.471954	51.319116
330.639404	51.406694
330.806854	51.457435
330.974335	51.529283
331.141754	51.605703
331.309204	51.696689
331.476654	51.791475
331.644073	51.871402
331.811493	51.946695
331.978912	52.000454
332.146332	52.084905
332.313721	52.157647
332.481110	52.238463
332.648499	52.321221
332.815887	52.373176
332.983276	52.457473
333.150635	52.482900
333.317993	52.531386
333.485352	52.593966
333.652710	52.658316
333.820068	52.726109
333.987396	52.771232
334.154724	52.845259
334.322052	52.903178
334.489380	52.929435
334.656708	52.946243
334.824005	52.969641
334.991302	52.984146
335.158600	53.028947
335.325897	53.080381
335.493164	53.117338
335.660431	53.158102
335.827728	53.199720
335.994965	53.210201
336.162231	53.258976
336.329498	53.284606
336.496735	53.340271
336.663971	53.360196
336.831207	53.385210
336.998413	53.423576
337.165649	53.455615
337.332855	53.466787
337.500061	53.522833
337.667267	53.572615
337.834442	53.633422
338.001648	53.705064
338.168823	53.753801
338.335999	53.828483
338.503174	53.871993
338.670319	53.910703
338.837494	53.961257
339.004639	53.997759
339.171783	54.022139
339.338898	54.073387
339.506042	54.112372
339.673157	54.138500
339.840271	54.187696
340.007385	54.247085
340.174500	54.300574
340.341583	54.342544
340.508667	54.383913
340.675751	54.448759
340.842834	54.477152
341.009918	54.503481
341.176971	54.561826
341.344055	54.597429
341.511108	54.644433
341.678131	54.673173
341.845184	54.701755
342.012207	54.742438
342.179230	54.781207
342.346252	54.808389
342.513275	54.851844
342.680298	54.895659
342.847290	54.939300
343.014282	54.974574
343.181274	55.012141
343.348267	55.042068
343.515228	55.078985
343.682190	55.113536
343.849152	55.152369
344.016113	55.167691
344.183075	55.199567
344.350006	55.245277
344.516968	55.268744
344.683899	55.301773
344.850800	55.332774
345.017731	55.356033
345.184631	55.377731
345.351532	55.420869
345.518433	55.427376
345.685333	55.473731
345.852234	55.495316
346.019104	55.518817
346.185974	55.544884
346.352844	55.581742
346.519714	55.614722
346.686554	55.643587
346.853424	55.659915
347.020264	55.680302
347.187073	55.704379
347.353912	55.749271
347.520721	55.769898
347.687561	55.797540
347.854370	55.832491
348.021179	55.850178
348.187958	55.860977
348.354736	55.873157
348.521545	55.905829
348.688324	55.919173
348.855072	55.979826
349.021851	55.980941
349.188599	55.997926
349.355347	56.021453
349.522095	56.047689
349.688843	56.082754
349.855560	56.091598
350.022308	56.110787
350.189026	56.130948
350.355743	56.143060
350.522430	56.158677
350.689148	56.185708
350.855835	56.207504
351.022522	56.229735
351.189209	56.251485
351.355865	56.278879
351.522522	56.311769
351.689209	56.357813
351.855865	56.382498
352.022491	56.411905
352.189148	56.411244
352.355774	56.448955
352.522400	56.489339
352.689026	56.522729
352.855652	56.523610
353.022247	56.553278
353.188843	56.562334
353.355438	56.596640
353.522034	56.622598
353.688629	56.670453
353.855194	56.706672
354.021759	56.707698
354.188324	56.707931
354.354889	56.730787
354.521454	56.740925
354.687988	56.776103
354.854523	56.803416
355.021057	56.812680
355.187592	56.847452
355.354095	56.886759
355.520599	56.913930
355.687134	56.950504
355.853607	56.951817
356.020111	56.969206
356.186584	57.015732
356.353088	57.030854
356.519562	57.080960
356.686005	57.106642
356.852478	57.130005
357.018921	57.159030
357.185364	57.162062
357.351807	57.188180
357.518250	57.216852
357.684692	57.237227
357.851105	57.255202
358.017517	57.274499
358.183929	57.277672
358.350311	57.300875
358.516724	57.305975
358.683105	57.311155
358.849487	57.336003
359.015869	57.345917
359.182220	57.368795
359.348602	57.376307
359.514954	57.393418
359.681305	57.409335
359.847656	57.412033
360.013977	57.410645
360.180298	57.416744
360.346649	57.415059
360.512939	57.424043
360.679260	57.465522
360.845581	57.485714
361.011871	57.503242
361.178162	57.533217
361.344452	57.541132
361.510712	57.572349
361.677002	57.590846
361.843262	57.604393
362.009521	57.610550
362.175751	57.612709
362.342010	57.635596
362.508240	57.655013
362.674469	57.682855
362.840698	57.692161
363.006927	57.705530
363.173126	57.724038
363.339325	57.738649
363.505524	57.762215
363.671722	57.781161
363.837921	57.823117
364.004089	57.826612
364.170258	57.847371
364.336426	57.864824
364.502594	57.873503
364.668762	57.892588
364.834900	57.874904
365.001038	57.892545
365.167175	57.930678
365.333282	57.949171
365.499420	57.981936
365.665527	57.977096
365.831635	57.996937
365.997742	58.007685
366.163818	58.010601
366.329926	58.028691
366.496002	58.046951
366.662079	58.070827
366.828156	58.084792
366.994202	58.100442
367.160248	58.097821
367.326294	58.099332
367.492340	58.115505
367.658386	58.112870
367.824402	58.134846
367.990448	58.147021
368.156464	58.188010
368.322449	58.221564
368.488464	58.195602
368.654449	58.217682
368.820435	58.202164
368.986420	58.205161
369.152405	58.220531
369.318390	58.248205
369.484344	58.269822
369.650299	58.291390
369.816254	58.309277
369.982178	58.312224
370.148132	58.325729
370.314056	58.329927
370.479980	58.360718
370.645905	58.383896
370.811798	58.412645
370.977692	58.444843
371.143616	58.440267
371.309479	58.459361
371.475372	58.469129
371.641266	58.458277
371.807129	58.494237
371.972992	58.512540
372.138855	58.568976
372.304688	58.589809
372.470551	58.604745
372.636383	58.616611
372.802216	58.635133
372.968018	58.637281
373.133850	58.668401
373.299652	58.692259
373.465454	58.714799
373.631256	58.757951
373.797058	58.769514
373.962830	58.800657
374.128601	58.804751
374.294373	58.821427
374.460144	58.842011
374.625916	58.855986
374.791656	58.865353
374.957397	58.873481
375.123138	58.874967
375.288879	58.869864
375.454590	58.841791
375.620331	58.856717
375.786041	58.872198
375.951721	58.872101
376.117432	58.878403
376.283112	58.899345
376.448822	58.916492
376.614471	58.924954
376.780151	58.921903
376.945831	58.915256
377.111481	58.941509
377.277130	58.941144
377.442780	58.949790
377.608429	58.942817
377.774048	58.954380
377.939667	58.957709
378.105286	58.956458
378.270905	58.971964
378.436523	58.987651
378.602112	59.003544
378.767700	59.018602
378.933289	59.028954
379.098877	59.026364
379.264435	59.037458
379.429993	59.047987
379.595551	59.048680
379.761108	59.022375
379.926666	59.036434
380.092194	59.062733
380.257721	59.057857
380.423248	59.039974
380.588776	59.041393
380.754272	59.043044
380.919800	59.050035
381.085297	59.056781
381.250793	59.066930
381.416260	59.081637
381.581757	59.106143
381.747223	59.129807
381.912689	59.123613
382.078125	59.152353
382.243591	59.177579
382.409027	59.182380
382.574463	59.188669
382.739899	59.192818
382.905334	59.201616
383.070740	59.248959
383.236176	59.264810
383.401581	59.278029
383.566956	59.294006
383.732361	59.309003
383.897736	59.310982
384.063110	59.328685
384.228485	59.355950
384.393860	59.380988
384.559204	59.399932
384.724579	59.404699
384.889923	59.400684
385.055237	59.409465
385.220581	59.450396
385.385895	59.460212
385.551239	59.460340
385.716522	59.482341
385.881836	59.497624
386.047150	59.518975
386.212433	59.534095
386.377716	59.546494
386.542999	59.567458
386.708252	59.572644
386.873535	59.592234
387.038788	59.610208
387.204041	59.618796
387.369293	59.633905
387.534515	59.637019
387.699738	59.617869
387.864960	59.623759
388.030182	59.652358
388.195404	59.654745
388.360596	59.678102
388.525787	59.679783
388.690979	59.699302
388.856171	59.717800
389.021362	59.725673
389.186523	59.729884
389.351685	59.730322
389.516846	59.727996
389.682007	59.750343
389.847137	59.734785
390.012268	59.756265
390.177399	59.748627
390.342529	59.759147
390.507629	59.772710
390.672760	59.759305
390.837860	59.738727
391.002960	59.764794
391.168030	59.758784
391.333130	59.770596
391.498199	59.801892
391.663269	59.786182
391.828339	59.770999
391.993378	59.762063
392.158447	59.755512
392.323486	59.763167
392.488525	59.752229
392.653534	59.748485
392.818573	59.767252
392.983582	59.742091
393.148590	59.776755
393.313599	59.748098
393.478577	59.777267
393.643585	59.786689
393.808563	59.793329
393.973541	59.802652
394.138489	59.828011
394.303467	59.842823
394.468414	59.883971
394.633362	59.876090
394.798309	59.877106
394.963226	59.906400
395.128174	59.927240
395.293091	59.939455
395.458008	59.947352
395.622894	59.956664
395.787811	59.993934
395.952698	60.020701
396.117584	60.037641
396.282471	60.030654
396.447327	60.032817
396.612213	60.045665
396.777069	60.057018
396.941925	60.050195
397.106750	60.077400
397.271606	60.086240
397.436432	60.095059
397.601257	60.101563
397.766083	60.087944
397.930878	60.111629
398.095703	60.126059
398.260498	60.124497
398.425293	60.135805
398.590057	60.134355
398.754852	60.150862
398.919617	60.167342
399.084381	60.162888
399.249146	60.180306
399.413879	60.183474
399.578644	60.208598
399.743378	60.206902
399.908112	60.238319
400.072815	60.233576
400.237549	60.241027
400.402252	60.232054
400.566956	60.249726
400.731659	60.242370
400.896332	60.242863
401.061035	60.241373
401.225708	60.247483
401.390381	60.244933
401.555023	60.252388
401.719696	60.266545
401.884338	60.296898
402.048981	60.290288
402.213623	60.269072
402.378235	60.276344
402.542847	60.289053
402.707489	60.293164
402.872070	60.305295
403.036682	60.326048
403.201294	60.327030
403.365875	60.346710
403.530457	60.361469
403.695007	60.368267
403.859589	60.402536
404.024139	60.449349
404.188690	60.441688
404.353241	60.459077
404.517792	60.451194
404.682312	60.459009
404.846832	60.453797
405.011353	60.450290
405.175873	60.443590
405.340393	60.479321
405.504883	60.516693
405.669373	60.531888
405.833862	60.533758
405.998322	60.534354
406.162811	60.529596
406.327271	60.542862
406.491730	60.544131
406.656189	60.548719
406.820618	60.548303
406.985046	60.554991
407.149475	60.555024
407.313904	60.536161
407.478333	60.557977
407.642731	60.564462
407.807129	60.585360
407.971527	60.618375
408.135925	60.601996
408.300293	60.606265
408.464661	60.609155
408.629028	60.619875
408.793396	60.606407
408.957764	60.625354
409.122101	60.607532
409.286438	60.620750
409.450775	60.617933
409.615112	60.611230
409.779419	60.616062
409.943726	60.608347
410.108032	60.630687
410.272339	60.658002
410.436646	60.661265
410.600922	60.662342
410.765198	60.689252
410.929474	60.672505
411.093750	60.675460
411.257996	60.667510
411.422241	60.693748
411.586487	60.719251
411.750732	60.735387
411.914948	60.730584
412.079193	60.759916
412.243408	60.780791
412.407623	60.825521
412.571808	60.822800
412.735992	60.851140
412.900208	60.852905
413.064392	60.893362
413.228546	60.892323
413.392731	60.908602
413.556885	60.933572
413.721039	60.925832
413.885193	60.966946
414.049316	60.953768
414.213470	60.994689
414.377594	60.990447
414.541718	60.990834
414.705811	61.012004
414.869934	60.990244
415.034027	61.001743
415.198120	61.025775
415.362213	61.047177
415.526276	61.038227
415.690338	61.042707
415.854431	61.040865
416.018463	61.041168
416.182526	61.019193
416.346558	61.008987
416.510620	61.054488
416.674622	61.057857
416.838654	61.052332
417.002686	61.077939
417.166687	61.097091
417.330688	61.105112
417.494690	61.139199
417.658661	61.169125
417.822662	61.193626
417.986633	61.202510
418.150604	61.219171
418.314545	61.220643
418.478516	61.236359
418.642456	61.215811
418.806396	61.242457
418.970337	61.234002
419.134247	61.274262
419.298187	61.283279
419.462097	61.331770
419.625977	61.351337
419.789886	61.338136
419.953766	61.338192
420.117676	61.341764
420.281555	61.363848
420.445404	61.362256
420.609283	61.383014
420.773132	61.354061
420.936981	61.363114
421.100830	61.385833
421.264648	61.394918
421.428497	61.407818
421.592316	61.431805
421.756134	61.430800
421.919922	61.462556
422.083740	61.443955
422.247528	61.455510
422.411316	61.440785
422.575104	61.445876
422.738861	61.440456
422.902618	61.459408
423.066406	61.489477
423.230133	61.482041
423.393890	61.480224
423.557617	61.475696
423.721344	61.463966
423.885071	61.503292
424.048798	61.524422
424.212524	61.525763
424.376221	61.489431
424.539917	61.508464
424.703583	61.520933
424.867279	61.496414
425.030945	61.496166
425.194611	61.507079
425.358276	61.531625
425.521942	61.558804
425.685577	61.586527
425.849213	61.613628
426.012848	61.630685
426.176483	61.623872
426.340118	61.619237
426.503723	61.644541
426.667328	61.666140
426.830933	61.662757
426.994507	61.655402
427.158112	61.622188
427.321686	61.631112
427.485229	61.615733
427.648804	61.647186
427.812378	61.657481
427.975922	61.673240
428.139465	61.712832
428.302979	61.713605
428.466522	61.718598
428.630035	61.710636
428.793549	61.716454
428.957062	61.705523
429.120575	61.685873
429.284058	61.709007
429.447540	61.721257
429.611023	61.753381
429.774506	61.767281
429.937958	61.772093
430.101410	61.798501
430.264862	61.844652
430.428314	61.843621
430.591736	61.854540
430.755188	61.899820
430.918610	61.922802
431.082031	61.938585
431.245422	61.947847
431.408813	61.946777
431.572235	61.965317
431.735596	61.967583
431.898987	61.972860
432.062378	61.974160
432.225739	61.984547
432.389099	62.035337
432.552429	62.048521
432.715790	62.069549
432.879120	62.069463
433.042450	62.073128
433.205780	62.076129
433.369110	62.055369
433.532410	62.054094
433.695709	62.092571
433.859009	62.107719
434.022308	62.120062
434.185577	62.142601
434.348846	62.144083
434.512115	62.151583
434.675385	62.169783
434.838654	62.162800
435.001892	62.177148
435.165131	62.207847
435.328369	62.216283
435.491577	62.256866
435.654816	62.240989
435.818024	62.242802
435.981232	62.245147
436.144409	62.252809
436.307617	62.249315
436.470795	62.265266
436.633972	62.293256
436.797119	62.315877
436.960297	62.327862
437.123444	62.343077
437.286591	62.351640
437.449738	62.329361
437.612885	62.329481
437.776001	62.351351
437.939117	62.353331
438.102234	62.364597
438.265350	62.374665
438.428436	62.361227
438.591522	62.372343
438.754608	62.356525
438.917694	62.351999
439.080750	62.351561
439.243835	62.306867
439.406891	62.301965
439.569916	62.321809
439.732971	62.327969
439.895996	62.347117
440.059021	62.346932
440.222046	62.353218
440.385071	62.365526
440.548065	62.371995
440.711060	62.390119
440.874054	62.404336
441.037048	62.399991
441.200012	62.410455
441.363007	62.446794
441.525970	62.440773
441.688904	62.455917
441.851868	62.464757
442.014801	62.490603
442.177734	62.534803
442.340668	62.548029
442.503601	62.597024
442.666504	62.607329
442.829407	62.626672
442.992310	62.631451
443.155212	62.639676
443.318085	62.663573
443.480957	62.653937
443.643829	62.644358
443.806702	62.645906
443.969543	62.641498
444.132416	62.632851
444.295258	62.640295
444.458069	62.667646
444.620911	62.653469
444.783722	62.662676
444.946533	62.673038
445.109344	62.677075
445.272156	62.690753
445.434937	62.671318
445.597717	62.663725
445.760498	62.685500
445.923279	62.704688
446.086060	62.712305
446.248810	62.738588
446.411560	62.742565
446.574280	62.728005
446.737030	62.765282
446.899750	62.788356
447.062469	62.787447
447.225189	62.820559
447.387909	62.833988
447.550598	62.865589
447.713287	62.964975
447.875977	63.003558
448.038666	63.027768
448.201324	63.054474
448.363983	63.066158
448.526642	63.070069
448.689301	63.076011
448.851929	63.099680
449.014587	63.081866
449.177216	63.099066
449.339813	63.109645
449.502441	63.114108
449.665039	63.122781
449.827637	63.130110
449.990234	63.151153
450.152832	63.160109
450.315399	63.179388
450.477966	63.178689
450.640533	63.179752
450.803101	63.184226
450.965637	63.073915
451.128174	63.075354
451.290710	63.051709
451.453247	63.025497
451.615784	63.027314
451.778290	63.022895
451.940796	63.025130
452.103302	63.056218
452.265778	63.078069
452.428253	63.062118
452.590729	63.037138
452.753204	63.060800
452.915680	63.065073
453.078125	63.083394
453.240570	63.071772
453.403015	63.061549
453.565460	63.080877
453.727875	63.086576
453.890289	63.096825
454.052704	63.094364
454.215118	63.101863
454.377533	63.056042
454.539917	63.089632
454.702301	63.150415
454.864685	63.180656
455.027039	63.209953
455.189392	63.235913
455.351746	63.252194
455.514099	63.257959
455.676453	63.278761
455.838776	63.327779
456.001099	63.336107
456.163422	63.336949
456.325745	63.319340
456.488037	63.310732
456.650330	63.335949
456.812622	63.349067
456.974915	63.374329
457.137177	63.427647
457.299469	63.440394
457.461731	63.431854
457.623962	63.475673
457.786224	63.494287
457.948456	63.474557
458.110687	63.444281
458.272919	63.392531
458.435150	63.387138
458.597351	63.402850
458.759552	63.438818
458.921753	63.432050
459.083923	63.449462
459.246124	63.412453
459.408295	63.397525
459.570465	63.414177
459.732635	63.405132
459.894775	63.397056
460.056915	63.387753
460.219055	63.392928
460.381195	63.373954
460.543304	63.352487
460.705444	63.404835
460.867554	63.445345
461.029633	63.425707
461.191742	63.453085
461.353821	63.481074
461.515900	63.551256
461.677979	63.561057
461.840057	63.521187
462.002106	63.506425
462.164154	63.531031
462.326202	63.519614
462.488251	63.544434
462.650269	63.586634
462.812286	63.624933
462.974304	63.651243
463.136322	63.636509
463.298309	63.646687
463.460297	63.632575
463.622284	63.626704
463.784271	63.670309
463.946259	63.646861
464.108215	63.631012
464.270172	63.640953
464.432129	63.606935
464.594055	63.615033
464.755981	63.611324
464.917908	63.618820
465.079834	63.628799
465.241760	63.630413
465.403656	63.637381
465.565552	63.625609
465.727448	63.632168
465.889343	63.619609
466.051208	63.591616
466.213074	63.588931
466.374939	63.637839
466.536804	63.646600
466.698639	63.618579
466.860504	63.619588
467.022308	63.628055
467.184143	63.666025
467.345978	63.654250
467.507782	63.661843
467.669586	63.695375
467.831390	63.698016
467.993164	63.703490
468.154938	63.713999
468.316711	63.698549
468.478485	63.733334
468.640259	63.718877
468.802002	63.704719
468.963745	63.714713
469.125488	63.743443
469.287231	63.757222
469.448944	63.761169
469.610657	63.726791
469.772369	63.690698
469.934082	63.740452
470.095764	63.761519
470.257446	63.724503
470.419128	63.730208
470.580811	63.748556
470.742462	63.772682
470.904144	63.764672
471.065796	63.767434
471.227417	63.766595
471.389069	63.802816
471.550690	63.860921
471.712311	63.858989
471.873932	63.912518
472.035522	63.940565
472.197144	63.975656
472.358734	63.989525
472.520294	64.006507
472.681885	64.017098
472.843445	64.044517
473.005005	64.087880
473.166565	64.082531
473.328125	64.085280
473.489655	64.099615
473.651184	64.089154
473.812714	64.090891
473.974243	64.092269
474.135742	64.101552
474.297241	64.101399
474.458740	64.085231
474.620239	64.062627
474.781738	64.046133
474.943207	64.024831
475.104675	63.983996
475.266113	63.991391
475.427582	63.983760
475.589020	63.970719
475.750458	63.964402
475.911896	63.955691
476.073303	63.965692
476.234741	63.965729
476.396149	63.990616
476.557526	64.003135
476.718933	64.030649
476.880310	64.056012
477.041687	64.072185
477.203064	64.051149
477.364441	64.072797
477.525787	64.088739
477.687134	64.145013
477.848480	64.148960
478.009827	64.153547
478.171143	64.159214
478.332458	64.189331
478.493774	64.220130
478.655090	64.196094
478.816376	64.194175
478.977661	64.234469
479.138947	64.284460
479.300232	64.290430
479.461487	64.310415
479.622772	64.285843
479.784027	64.304015
479.945251	64.307329
480.106506	64.277971
480.267731	64.302947
480.428955	64.318012
480.590179	64.295024
480.751373	64.285392
480.912567	64.251625
481.073761	64.285798
481.234955	64.288597
481.396149	64.329930
481.557312	64.319830
481.718475	64.331090
481.879639	64.363510
482.040802	64.362889
482.201935	64.372927
482.363068	64.357702
482.524200	64.353622
482.685303	64.357534
482.846436	64.339687
483.007538	64.364115
483.168640	64.380646
483.329712	64.411490
483.490814	64.401722
483.651886	64.425376
483.812958	64.470053
483.973999	64.483701
484.135071	64.502203
484.296112	64.525796
484.457153	64.547708
484.618195	64.541529
484.779205	64.542745
484.940216	64.535251
485.101227	64.544028
485.262238	64.590514
485.423218	64.563365
485.584229	64.565815
485.745209	64.596650
485.906158	64.611347
486.067139	64.649977
486.228088	64.604792
486.389038	64.592535
486.549988	64.609286
486.710907	64.600719
486.871857	64.590514
487.032776	64.589345
487.193665	64.604707
487.354584	64.610929
487.515472	64.584976
487.676361	64.583748
487.837250	64.572451
487.998138	64.556177
488.158997	64.544868
488.319855	64.533071
488.480713	64.497875
488.641541	64.511944
488.802399	64.495991
488.963226	64.498412
489.124054	64.489479
489.284851	64.493925
489.445679	64.505280
489.606476	64.536778
489.767273	64.550464
489.928040	64.562199
490.088837	64.574465
490.249603	64.579802
490.410370	64.620326
490.571106	64.617006
490.731873	64.613533
490.892609	64.636175
491.053345	64.617452
491.214081	64.652522
491.374786	64.681142
491.535492	64.692448
491.696198	64.715078
491.856903	64.701520
492.017578	64.755210
492.178284	64.752883
492.338959	64.746453
492.499603	64.768686
492.660278	64.775590
492.820923	64.761982
492.981567	64.746922
493.142212	64.747171
493.302826	64.739545
493.463440	64.725001
493.624054	64.721216
493.784668	64.737975
493.945282	64.738310
494.105865	64.721259
494.266449	64.754305
494.427032	64.774958
494.587585	64.775474
494.748169	64.777443
494.908722	64.806373
495.069244	64.803402
495.229797	64.761346
495.390320	64.759934
495.550842	64.796246
495.711365	64.776046
495.871887	64.809093
496.032379	64.829344
496.192871	64.832848
496.353363	64.843539
496.513855	64.866246
496.674316	64.888992
496.834778	64.866028
496.995239	64.872268
497.155670	64.886300
497.316132	64.887180
497.476562	64.892188
497.636993	64.871347
497.797394	64.854600
497.957825	64.879188
498.118225	64.871442
498.278625	64.892772
498.438995	64.922864
498.599396	64.921040
498.759766	64.915311
498.920135	64.922074
499.080475	64.913970
499.240845	64.896229
499.401184	64.879656
499.561523	64.887575
499.721832	64.897048
499.882172	64.897330
500.042480	64.919647
500.202789	64.925662
500.363098	64.906119
500.523376	64.911250
500.683655	64.933981
500.843933	64.932399
501.004211	64.943979
501.164459	64.896810
501.324707	64.878074
501.484955	64.895784
501.645203	64.915421
501.805420	64.920810
501.965668	64.924013
502.125885	64.955475
502.286072	64.953354
502.446289	64.978975
502.606476	64.985932
502.766663	64.976684
502.926849	64.988573
503.087006	64.959448
503.247162	64.964999
503.407318	64.941981
503.567474	64.964658
503.727600	64.982638
503.887756	64.989970
504.047882	65.014934
504.207977	65.029727
504.368103	65.054164
504.528198	65.072201
504.688293	65.074349
504.848389	65.067512
505.008453	65.092531
505.168549	65.090270
505.328613	65.071456
505.488647	65.072488
505.648712	65.068224
505.808746	65.097270
505.968781	65.101564
506.128815	65.094985
506.288818	65.129479
506.448853	65.124904
506.608856	65.142681
506.768829	65.135496
506.928833	65.125688
507.088806	65.122261
507.248779	65.133211
507.408752	65.111404
507.568695	65.162902
507.728668	65.128334
507.888611	65.115150
508.048523	65.104369
508.208466	65.080606
508.368378	65.074562
508.528290	65.115439
508.688202	65.108901
508.848114	65.095827
509.007996	65.098717
509.167877	65.111410
509.327759	65.123045
509.487610	65.147004
509.647461	65.162232
509.807312	65.152833
509.967163	65.183381
510.127014	65.177077
510.286835	65.161032
510.446655	65.146912
510.606476	65.183541
510.766266	65.151914
510.926086	65.186919
511.085876	65.229118
511.245667	65.231473
511.405426	65.245081
511.565186	65.253749
511.724945	65.231212
511.884705	65.235834
512.044434	65.230687
512.204163	65.230312
512.363953	65.233223
512.523621	65.257312
512.683350	65.217581
512.843079	65.193350
513.002747	65.231317
513.162476	65.241238
513.322144	65.243485
513.481812	65.247982
513.641479	65.276355
513.801147	65.273500
513.960815	65.254955
514.120422	65.286003
514.280090	65.283281
514.439697	65.298409
514.599365	65.304756
514.758972	65.339145
514.918579	65.321950
515.078186	65.356994
515.237732	65.382790
515.397339	65.354352
515.556946	65.324917
515.716492	65.317212
515.876038	65.339990
516.035583	65.341593
516.195129	65.354112
516.354675	65.327166
516.514221	65.355499
516.673767	65.387546
516.833252	65.348324
516.992798	65.331902
517.152283	65.378205
517.311768	65.359503
517.471252	65.319620
517.630737	65.338207
517.790222	65.342356
517.949646	65.309697
518.109131	65.331533
518.268555	65.357975
518.427979	65.321320
518.587463	65.371910
518.746887	65.423461
518.906250	65.372486
519.065674	65.380375
519.225098	65.393922
519.384460	65.377581
519.543884	65.394424
519.703247	65.381311
519.862610	65.378074
520.021973	65.416269
520.181335	65.459323
520.340698	65.437397
520.500000	65.439412
520.659363	65.434983
520.818665	65.399669
520.977966	65.429620
521.137329	65.432304
521.296631	65.467608
521.455872	65.430376
521.615173	65.478830
521.774475	65.448512
521.933716	65.443870
522.093018	65.484192
522.252258	65.469761
522.411499	65.444057
522.570740	65.439839
522.729980	65.423791
522.889221	65.423285
523.048401	65.408219
523.207642	65.419128
523.366821	65.433623
523.526001	65.431201
523.685181	65.435697
523.844360	65.503717
524.003540	65.537913
524.162720	65.553165
524.321838	65.562906
524.481018	65.529323
524.640137	65.519845
524.799316	65.516047
524.958435	65.552498
525.117554	65.530965
525.276611	65.529659
525.435730	65.557802
525.594849	65.583985
525.753906	65.597438
525.912964	65.630463
526.072083	65.628035
526.231140	65.627801
526.390198	65.603813
526.549255	65.603924
526.708252	65.636878
526.867310	65.608763
527.026306	65.588917
527.185364	65.604632
527.344360	65.573389
527.503357	65.608668
527.662354	65.630835
527.821350	65.618582
527.980286	65.647112
528.139282	65.613879
528.298218	65.630374
528.457214	65.594802
528.616150	65.544188
528.775085	65.558053
528.934021	65.556441
529.092896	65.574353
529.251831	65.616551
529.410767	65.622924
529.569641	65.636176
529.728516	65.616800
529.887451	65.596567
530.046326	65.640375
530.205200	65.609748
530.364014	65.563346
530.522888	65.556496
530.681702	65.556023
530.840576	65.530155
530.999390	65.583259
531.158203	65.605193
531.317017	65.632756
531.475830	65.623186
531.634644	65.638728
531.793457	65.708396
531.952209	65.716338
532.110962	65.712480
532.269775	65.691311
532.428528	65.614140
532.587280	65.608886
532.746033	65.627823
532.904724	65.652728
533.063477	65.676586
533.222229	65.683910
533.380920	65.737681
533.539612	65.776582
533.698303	65.796947
533.856995	65.789073
534.015686	65.816894
534.174377	65.800197
534.333008	65.739212
534.491699	65.742140
534.650330	65.775008
534.808960	65.846638
534.967651	65.851245
535.126221	65.857487
535.284851	65.835764
535.443481	65.823864
535.602112	65.940299
535.760681	65.982985
535.919250	65.992264
536.077881	66.017996
536.236450	66.067469
536.395020	66.072400
536.553528	66.100245
536.712097	66.191325
536.870667	66.232819
537.029175	66.225184
537.187683	66.268683
537.346191	66.288780
537.504700	66.341207
537.663208	66.329491
537.821716	66.299909
537.980225	66.313760
538.138672	66.298830
538.297180	66.328263
538.455627	66.392879
538.614075	66.440963
538.772522	66.446608
538.930969	66.438320
539.089417	66.403652
539.247803	66.400568
539.406250	66.374395
539.564636	66.440932
539.723083	66.433387
539.881470	66.354075
540.039856	66.316667
540.198242	66.367449
540.356567	66.397475
540.514954	66.406341
540.673279	66.376629
540.831665	66.431109
540.989990	66.462449
541.148315	66.431304
541.306641	66.460714
541.464966	66.423743
541.623291	66.391326
541.781555	66.393665
541.939880	66.367479
542.098145	66.401504
542.256409	66.473001
542.414673	66.433753
542.572937	66.439035
542.731201	66.395788
542.889465	66.361692
543.047668	66.344068
543.205933	66.379668
543.364136	66.373526
543.522339	66.327821
543.680542	66.315289
543.838745	66.393494
543.996948	66.389349
544.155090	66.412105
544.313293	66.404136
544.471436	66.373634
544.629639	66.402096
544.787781	66.391712
544.945923	66.387461
545.104065	66.396112
545.262146	66.350165
545.420288	66.294826
545.578369	66.337085
545.736511	66.338830
545.894592	66.400052
546.052673	66.333891
546.210754	66.402367
546.368835	66.377230
546.526917	66.400976
546.684937	66.457409
546.843018	66.488307
547.001038	66.466263
547.159058	66.451943
547.317078	66.477347
547.475098	66.554249
547.633118	66.607340
547.791138	66.577085
547.949097	66.595723
548.107117	66.610005
548.265076	66.594833
548.423035	66.613168
548.580994	66.688488
548.738953	66.686363
548.896912	66.687749
549.054810	66.624375
549.212769	66.718608
549.370667	66.651016
549.528625	66.699068
549.686523	66.622308
549.844421	66.505116
550.002319	66.487757
550.160156	66.436737
550.318054	66.436531
550.475891	66.419688
550.633789	66.368798
550.791626	66.340666
550.949463	66.457677
551.107300	66.449492
551.265137	66.426060
551.422974	66.405816
551.580750	66.456286
551.738586	66.427328
551.896362	66.390306
552.054138	66.375240
552.211914	66.386202
552.369690	66.453474
552.527466	66.508570
552.685242	66.558736
552.842957	66.541861
553.000671	66.630715
553.158447	66.700743
553.316162	66.715663
553.473877	66.794001
553.631592	66.809457
553.789307	66.800499
553.946960	66.787224
554.104675	66.718235
554.262329	66.726022
554.419983	66.737911
554.577637	66.821561
554.735291	66.766261
554.892944	66.750186
555.050598	66.766120
555.208252	66.840196
555.365845	66.811799
555.523438	66.794398
555.681030	66.898314
555.838684	66.813225
555.996216	66.884544
556.153809	66.913516
556.311401	66.807401
556.468994	66.844999
556.626526	66.809154
556.784058	66.710246
556.941589	66.741274
557.099121	66.722809
557.256653	66.780457
557.414185	66.863964
557.571716	66.986471
557.729187	66.924505
557.886719	67.005225
558.044189	66.965333
558.201660	67.037588
558.359131	66.982838
558.516602	67.069543
558.674011	67.000073
558.831482	66.937155
558.988892	66.933033
559.146362	66.926952
559.303772	66.796373
559.461182	66.869627
559.618591	66.863609
559.776001	66.913907
559.933350	67.032889
560.090759	66.938909
560.248108	67.007400
560.405518	66.933737
560.562866	66.964328
560.720215	66.867419
560.877563	66.794897
561.034851	66.719686
561.192200	66.761009
561.349548	66.672349
561.506836	66.694812
561.664124	66.624116
561.821411	66.721389
561.978699	66.741858
562.135986	66.810971
562.293274	66.970349
562.450500	67.109017
562.607788	67.118040
562.765015	67.121651
562.922241	67.104125
563.079468	67.095533
563.236694	67.174982
563.393921	67.146963
563.551147	67.307862
563.708313	67.379580
563.865540	67.498053
564.022705	67.516089
564.179871	67.564543
564.337036	67.568825
564.494202	67.766437
564.651367	67.812432
564.808472	67.892299
564.965637	67.942414
565.122742	67.886105
565.279846	67.911384
565.436951	67.861385
565.594055	67.921412
565.751160	67.996758
565.908264	68.060302
566.065308	68.073962
566.222412	68.185591
566.379456	68.218020
566.536499	68.284848
566.693542	68.158700
566.850586	68.075472
567.007629	67.975352
567.164673	68.053752
567.321655	68.013352
567.478699	68.142156
567.635681	68.026293
567.792664	68.089307
567.949646	68.052852
568.106628	67.939813
568.263611	67.972446
568.420532	67.921950
568.577515	67.879213
568.734436	67.795025
568.891357	67.802508
569.048279	67.778526
569.205200	67.801232
569.362122	67.842875
569.518982	67.865277
569.675903	67.835507
569.832764	67.927849
569.989685	67.948957
570.146545	67.993282
570.303406	68.031547
570.460266	68.078116
570.617065	67.998713
570.773926	67.945976
570.930786	67.830874
571.087585	67.916621
571.244385	67.897629
571.401184	67.900168
571.557983	67.930547
571.714783	68.000419
571.871582	68.074062
572.028320	68.033198
572.185120	68.027694
572.341858	67.986715
572.498596	67.749672
572.655334	67.762527
572.812073	67.813202
572.968811	67.795893
573.125488	67.786263
573.282227	67.796247
573.438904	67.869797
573.595581	67.868348
573.752258	67.833200
573.908936	67.934295
574.065613	67.964144
574.222290	67.908463
574.378906	67.935185
574.535583	68.014620
574.692200	67.988948
574.848816	67.924833
575.005432	67.867954
575.162048	67.810848
575.318665	67.907407
575.475281	67.954394
575.631836	67.981774
575.788452	68.053244
575.945007	68.097237
576.101562	68.144175
576.258118	68.167692
576.414673	68.106951
576.571167	68.109078
576.727722	68.196354
576.884216	68.244636
577.040771	68.272208
577.197266	68.305441
577.353760	68.254461
577.510254	68.328326
577.666748	68.276000
577.823181	68.331440
577.979675	68.307143
578.136108	68.280937
578.292542	68.329615
578.449036	68.255252
578.605469	68.198511
578.761841	68.329443
578.918274	68.257035
579.074707	68.170141
579.231079	68.053788
579.387451	67.985266
579.543884	68.035900
579.700256	67.957684
579.856628	67.880848
580.012939	67.872342
580.169312	67.845784
580.325684	67.825941
580.481995	67.877959
580.638306	67.857685
580.794617	67.827829
580.950928	67.809307
581.107239	67.863239
581.263550	67.909683
581.419800	67.909440
581.576111	67.920617
581.732361	67.942919
581.888611	67.906626
582.044861	67.873207
582.201111	67.892492
582.357361	67.931076
582.513611	67.992609
582.669800	67.988219
582.826050	68.007115
582.982239	68.054164
583.138428	68.091269
583.294617	68.044114
583.450806	68.020600
583.606995	68.004722
583.763123	67.974283
583.919312	67.966506
584.075439	67.997635
584.231567	67.957830
584.387695	67.945056
584.543823	67.963452
584.699951	67.929306
584.856018	67.922799
585.012146	67.942273
585.168213	67.963670
585.324341	67.997985
585.480408	67.966236
585.636475	67.865132
585.792480	67.910989
585.948547	67.919900
586.104614	67.940398
586.260620	67.928496
586.416626	68.021178
586.572693	68.040283
586.728699	68.018197
586.884705	68.139068
587.040649	68.194758
587.196655	68.204923
587.352600	68.209368
587.508606	68.228765
587.664551	68.243997
587.820496	68.244455
587.976440	68.255513
588.132385	68.247023
588.288330	68.314922
588.444214	68.267880
588.600159	68.372203
588.756042	68.484576
588.911926	68.465989
589.067810	68.473581
589.223694	68.464129
589.379578	68.494886
589.535400	68.399732
589.691284	68.371072
589.847107	68.413476
590.002930	68.343732
590.158752	68.282970
590.314575	68.311992
590.470398	68.343117
590.626221	68.361926
590.781982	68.344060
590.937805	68.353064
591.093567	68.412155
591.249329	68.452719
591.405090	68.373022
591.560852	68.434596
591.716614	68.409604
591.872375	68.392013
592.028076	68.418668
592.183777	68.501716
592.339539	68.571728
592.495239	68.558058
592.650940	68.659109
592.806580	68.690313
592.962280	68.697766
593.117920	68.703131
593.273621	68.836789
593.429260	68.846989
593.584900	68.834801
593.740540	68.895777
593.896179	68.885877
594.051819	68.935855
594.207397	68.894509
594.363037	68.882855
594.518616	68.905781
594.674194	68.918408
594.829773	68.958444
594.985352	68.904211
595.140930	68.809609
595.296509	68.703643
595.452026	68.621721
595.607605	68.596298
595.763123	68.531665
595.918640	68.637637
596.074158	68.605940
596.229675	68.662769
596.385132	68.626172
596.540649	68.543049
596.696106	68.597329
596.851624	68.607478
597.007080	68.576535
597.162537	68.650591
597.317993	68.682129
597.473389	68.701781
597.628845	68.736484
597.784241	68.660156
597.939697	68.638959
598.095093	68.773641
598.250488	68.870595
598.405884	68.934431
598.561279	68.953487
598.716614	69.008227
598.872009	69.008781
599.027344	68.911113
599.182739	69.013889
599.338074	68.959160
599.493408	68.971494
599.648682	69.033318
599.804016	69.031098
599.959351	68.976141
600.114624	69.024498
600.269958	68.948877
600.425232	68.922636
600.580505	68.907801
600.735779	68.916094
600.890991	68.969310
601.046265	69.014127
601.201477	68.922375
601.356750	68.862136
601.511963	68.858796
601.667175	68.881312
601.822388	68.885522
601.977600	68.884952
602.132812	68.970707
602.287964	68.951571
602.443115	68.971200
602.598328	68.969217
602.753479	68.925694
602.908630	68.905040
603.063782	68.936878
603.218872	68.915522
603.374023	68.934795
603.529114	68.960568
603.684265	68.990598
603.839355	69.009945
603.994446	69.016108
604.149536	68.934022
604.304626	68.883518
604.459656	68.948812
604.614746	68.945610
604.769775	68.961270
604.924805	68.909840
605.079834	69.022103
605.234863	69.019876
605.389893	68.953255
605.544922	68.999254
605.699890	69.070920
605.854919	69.052026
606.009888	69.050840
606.164856	69.008456
606.319824	69.045720
606.474792	69.006991
606.629761	68.945070
606.784668	68.877961
606.939636	68.883624
607.094543	68.874360
607.249451	68.888043
607.404358	68.946269
607.559265	68.994043
607.714172	69.075154
607.869080	69.036723
608.023926	69.111626
608.178772	69.016437
608.333679	69.047208
608.488525	69.093942
608.643372	69.058769
608.798218	68.969835
608.953003	69.046349
609.107849	69.042066
609.262634	69.020925
609.417419	69.142047
609.572266	69.179803
609.726990	69.234553
609.881775	69.286067
610.036560	69.260609
610.191345	69.245255
610.346069	69.300835
610.500793	69.415280
610.655579	69.325152
610.810303	69.247104
610.964966	69.225848
611.119690	69.213759
611.274414	69.245748
611.429077	69.314316
611.583801	69.361226
611.738464	69.428660
611.893127	69.448034
612.047791	69.441714
612.202454	69.472631
612.357056	69.543654
612.511719	69.405670
612.666321	69.468785
612.820923	69.477047
612.975586	69.441680
613.130188	69.432653
613.284729	69.403929
613.439331	69.315269
613.593933	69.264360
613.748474	69.207427
613.903015	69.275886
614.057556	69.419939
614.212097	69.516085
614.366638	69.476290
614.521179	69.382303
614.675720	69.347396
614.830200	69.282176
614.984680	69.230386
615.139221	69.262638
615.293701	69.208191
615.448181	69.162387
615.602600	69.178349
615.757080	69.194571
615.911499	69.221614
616.065979	69.307613
616.220398	69.289286
616.374817	69.356143
616.529236	69.410665
616.683655	69.377612
616.838074	69.405372
616.992432	69.360652
617.146851	69.256399
617.301208	69.115333
617.455566	69.128101
617.609924	69.105326
617.764282	69.197592
617.918579	69.279426
618.072937	69.322506
618.227234	69.306891
618.381592	69.368786
618.535889	69.357315
618.690186	69.382244
618.844482	69.301744
618.998718	69.416695
619.153015	69.441000
619.307312	69.471434
619.461548	69.517256
619.615784	69.587918
619.770020	69.658852
619.924255	69.731612
620.078491	69.712428
620.232666	69.822756
620.386902	69.927053
620.541077	69.939077
620.695251	69.962960
620.849487	69.876779
621.003601	69.767223
621.157776	69.774158
621.311951	69.778891
621.466064	69.724736
621.620239	69.815785
621.774353	69.815089
621.928467	69.887484
622.082581	69.723562
622.236694	69.651177
622.390808	69.732039
622.544861	69.660618
622.698975	69.639943
622.853027	69.651799
623.007080	69.667831
623.161133	69.726230
623.315186	69.646235
623.469238	69.557179
623.623230	69.632404
623.777283	69.652697
623.931274	69.717213
624.085266	69.711568
624.239258	69.724356
624.393250	69.752871
624.547241	69.824381
624.701233	69.767750
624.855164	69.830326
625.009094	69.817808
625.163086	69.949108
625.317017	69.998838
625.470947	69.954455
625.624817	70.006493
625.778748	70.050263
625.932617	70.111704
626.086548	70.131882
626.240417	70.094625
626.394287	70.110796
626.548157	70.129255
626.702026	70.087713
626.855896	70.090433
627.009705	70.092926
627.163574	70.122695
627.317383	70.161706
627.471191	70.135906
627.625000	70.187750
627.778809	70.260733
627.932556	70.208627
628.086365	70.134880
628.240112	70.042010
628.393921	70.066366
628.547668	70.153546
628.701416	70.167683
628.855164	70.093464
629.008850	69.930358
629.162598	69.961420
629.316284	70.074732
629.470032	70.119814
629.623718	70.197246
629.777405	70.246573
629.931091	70.290465
630.084778	70.296507
630.238403	70.359072
630.392090	70.297125
630.545715	70.267126
630.699341	70.277939
630.852966	70.239495
631.006592	70.238674
631.160217	70.242742
631.313843	70.322869
631.467407	70.306727
631.620972	70.185198
631.774597	70.162897
631.928162	70.137365
632.081726	70.272697
632.235229	70.253626
632.388794	70.142918
632.542358	70.057508
632.695862	69.985780
632.849365	69.919716
633.002869	69.852707
633.156372	69.784873
633.309875	69.737611
633.463379	69.801076
633.616821	69.871597
633.770325	69.825326
633.923767	69.869001
634.077209	69.848968
634.230652	69.888186
634.384094	69.827568
634.537537	69.794682
634.690918	69.875433
634.844299	69.831765
634.997742	69.914107
635.151123	69.824224
635.304504	69.813659
635.457886	69.800370
635.611206	69.791389
635.764587	69.801115
635.917908	69.847168
636.071289	69.891886
636.224609	69.941175
636.377930	70.053637
636.531250	70.075138
636.684570	69.977346
636.837830	70.014875
636.991150	69.942714
637.144409	70.059891
637.297668	70.083403
637.450928	70.131575
637.604187	70.198699
637.757446	70.210436
637.910645	70.285892
638.063904	70.282648
638.217102	70.285315
638.370300	70.305821
638.523499	70.312966
638.676697	70.351978
638.829895	70.393848
638.983093	70.378212
639.136230	70.346682
639.289429	70.318755
639.442566	70.228303
639.595703	70.200923
639.748840	70.237161
639.901978	70.181508
640.055054	70.156569
640.208191	70.030426
640.361267	70.073417
640.514343	70.024076
640.667419	69.967605
640.820496	69.936732
640.973572	69.984304
641.126648	69.941243
641.279663	69.906205
641.432739	69.953050
641.585754	69.991133
641.738770	70.015435
641.891785	70.078212
642.044800	70.111179
642.197754	70.054978
642.350769	70.118534
642.503723	70.086365
642.656738	70.158241
642.809692	70.216749
642.962646	70.299573
643.115540	70.385285
643.268494	70.470746
643.421448	70.500900
643.574341	70.585756
643.727234	70.647360
643.880127	70.669249
644.033020	70.696871
644.185913	70.696169
644.338806	70.811598
644.491699	70.742550
644.644531	70.734838
644.797363	70.777104
644.950195	70.744191
645.103027	70.720434
645.255859	70.844592
645.408691	70.752970
645.561462	70.827403
645.714294	70.736012
645.867065	70.677465
646.019836	70.643459
646.172607	70.604329
646.325378	70.617719
646.478149	70.530741
646.630859	70.470214
646.783630	70.460432
646.936340	70.424596
647.089050	70.400097
647.241760	70.458992
647.394470	70.405271
647.547180	70.379521
647.699829	70.370006
647.852539	70.355853
648.005188	70.310497
648.157837	70.333912
648.310486	70.275938
648.463135	70.404713
648.615784	70.388171
648.768433	70.399764
648.921021	70.421847
649.073608	70.424321
649.226257	70.475808
649.378845	70.506676
649.531372	70.500101
649.683960	70.547281
649.836548	70.528771
649.989075	70.542269
650.141663	70.474151
650.294189	70.474623
650.446716	70.519218
650.599243	70.533741
650.751709	70.544585
650.904236	70.502022
651.056702	70.557938
651.209229	70.581644
651.361694	70.608187
651.514160	70.546349
651.666626	70.606264
651.819092	70.569804
651.971497	70.582504
652.123962	70.489092
652.276367	70.445465
652.428772	70.416372
652.581177	70.451830
652.733582	70.360313
652.885986	70.348426
653.038330	70.407510
653.190735	70.441679
653.343079	70.406954
653.495422	70.398061
653.647827	70.454154
653.800110	70.509287
653.952454	70.489017
654.104797	70.436451
654.257080	70.352216
654.409424	70.378370
654.561707	70.427006
654.713989	70.367743
654.866272	70.433707
655.018555	70.474965
655.170776	70.558947
655.323059	70.555397
655.475281	70.495610
655.627502	70.467678
655.779724	70.537453
655.931946	70.535724
656.084167	70.444252
656.236328	70.397779
656.388550	70.392100
656.540710	70.348708
656.692871	70.308002
656.845093	70.261196
656.997192	70.302437
657.149353	70.263714
657.301514	70.296356
657.453613	70.185588
657.605774	70.156072
657.757874	70.174767
657.909973	70.170042
658.062073	70.177808
658.214172	70.149809
658.366211	70.204566
658.518311	70.214920
658.670349	70.241446
658.822388	70.203819
658.974426	70.234071
659.126465	70.306660
659.278503	70.343289
659.430481	70.370498
659.582520	70.386050
659.734497	70.424838
659.886475	70.466160
660.038452	70.443645
660.190430	70.524996
660.342407	70.549388
660.494385	70.665364
660.646301	70.629536
660.798279	70.614543
660.950195	70.607374
661.102112	70.572412
661.254028	70.621237
661.405884	70.607379
661.557800	70.690619
661.709717	70.672699
661.861572	70.708570
662.013428	70.663349
662.165283	70.684684
662.317139	70.715248
662.468994	70.678800
662.620789	70.682925
662.772644	70.623160
662.924438	70.581995
663.076233	70.596608
663.228027	70.529110
663.379822	70.538288
663.531616	70.500655
663.683411	70.528978
663.835144	70.550697
663.986877	70.575720
664.138611	70.576009
664.290344	70.555166
664.442078	70.510339
664.593811	70.477685
664.745544	70.480682
664.897217	70.486880
665.048889	70.488096
665.200623	70.462617
665.352295	70.429751
665.503967	70.485921
665.655579	70.539599
665.807251	70.563134
665.958862	70.608126
666.110535	70.660340
666.262146	70.729257
666.413757	70.704428
666.565369	70.798056
666.716919	70.805587
666.868530	70.807788
667.020081	70.819503
667.171692	70.831650
667.323242	70.808550
667.474792	70.867283
667.626343	70.847537
667.777832	70.867646
667.929382	70.833037
668.080872	70.902824
668.232422	70.898036
668.383911	70.949487
668.535400	70.933936
668.686890	70.911760
668.838318	70.937503
668.989807	70.910605
669.141235	70.902773
669.292725	70.894156
669.444153	70.868891
669.595581	70.771806
669.747009	70.782569
669.898376	70.790647
670.049805	70.801158
670.201172	70.758531
670.352539	70.769048
670.503967	70.719820
670.655273	70.719334
670.806641	70.733921
670.958008	70.735018
671.109375	70.688207
671.260681	70.662874
671.411987	70.643999
671.563293	70.578588
671.714600	70.578636
671.865906	70.522967
672.017212	70.516575
672.168457	70.502230
672.319763	70.500315
672.471008	70.619249
672.622253	70.614422
672.773499	70.622816
672.924744	70.643644
673.075928	70.668783
673.227173	70.723509
673.378357	70.764905
673.529541	70.808990
673.680786	70.802667
673.831909	70.811899
673.983093	70.856390
674.134277	70.886232
674.285400	70.909632
674.436584	70.924251
674.587708	70.975473
674.738831	70.925900
674.889954	71.073215
675.041077	71.072820
675.192139	71.090464
675.343262	71.117315
675.494324	71.076715
675.645386	71.128487
675.796448	71.122290
675.947510	71.106222
676.098572	71.049558
676.249634	71.017006
676.400635	70.991678
676.551636	70.976343
676.702698	70.986593
676.853699	70.980766
677.004639	71.008071
677.155640	70.991201
677.306641	70.993295
677.457581	70.953712
677.608521	70.958842
677.759521	70.966534
677.910461	70.888908
678.061401	70.911555
678.212280	70.917568
678.363220	70.944036
678.514099	70.908985
678.664978	70.896020
678.815918	70.938015
678.966797	70.917108
679.117615	70.958279
679.268494	70.994763
679.419373	70.973894
679.570190	71.079043
679.721008	71.150638
679.871826	71.144139
680.022644	71.065634
680.173462	71.078812
680.324280	71.159222
680.475037	71.164541
680.625854	71.255485
680.776611	71.318145
680.927368	71.305736
681.078125	71.327105
681.228882	71.349783
681.379639	71.304584
681.530334	71.309808
681.681030	71.299646
681.831787	71.206853
681.982483	71.232417
682.133179	71.207182
682.283813	71.213008
682.434509	71.210608
682.585205	71.198530
682.735840	71.139989
682.886475	71.160943
683.037109	71.226676
683.187744	71.289690
683.338379	71.227846
683.488953	71.274441
683.639587	71.171353
683.790161	71.187791
683.940735	71.213301
684.091309	71.218706
684.241882	71.171467
684.392456	71.172793
684.543030	71.139803
684.693542	71.122695
684.844055	71.126859
684.994568	71.140738
685.145081	71.129222
685.295593	71.152430
685.446106	71.188987
685.596619	71.121807
685.747070	71.133439
685.897522	71.136374
686.047974	71.108278
686.198425	71.039690
686.348877	71.080389
686.499329	71.099435
686.649719	71.146181
686.800171	71.115344
686.950562	71.102061
687.100952	71.104289
687.251343	71.137553
687.401733	71.126926
687.552124	71.140266
687.702454	71.180777
687.852783	71.235541
688.003174	71.208337
688.153503	71.181289
688.303833	71.114648
688.454102	71.120581
688.604431	71.135730
688.754700	71.120049
688.905029	71.097726
689.055298	71.134176
689.205566	71.114225
689.355835	71.071627
689.506104	71.029757
689.656311	70.984425
689.806580	71.002777
689.956787	71.055647
690.106995	71.044807
690.257202	71.048316
690.407410	71.009060
690.557617	71.088380
690.707764	71.078393
690.857971	71.036593
691.008118	71.097801
691.158264	71.118330
691.308411	71.159373
691.458557	71.157882
691.608704	71.194293
691.758789	71.256189
691.908936	71.247751
692.059021	71.234356
692.209106	71.267773
692.359192	71.293379
692.509277	71.371653
692.659302	71.410442
692.809387	71.447252
692.959412	71.385231
693.109436	71.351664
693.259460	71.350551
693.409485	71.373807
693.559509	71.335963
693.709534	71.382093
693.859497	71.440052
694.009521	71.380951
694.159485	71.378544
694.309448	71.347979
694.459412	71.383384
694.609314	71.378410
694.759277	71.347114
694.909180	71.386925
695.059143	71.410690
695.209045	71.432588
695.358948	71.357087
695.508850	71.320606
695.658691	71.305803
695.808594	71.263208
695.958435	71.226569
696.108337	71.283553
696.258179	71.273627
696.408020	71.338938
696.557800	71.316685
696.707642	71.308510
696.857483	71.269712
697.007263	71.306238
697.157043	71.344411
697.306824	71.380159
697.456604	71.365413
697.606384	71.340682
697.756165	71.379956
697.905884	71.394180
698.055603	71.344472
698.205383	71.314080
698.355103	71.380530
698.504822	71.405359
698.654480	71.425900
698.804199	71.478772
698.953857	71.557877
699.103577	71.505890
699.253235	71.475692
699.402893	71.477699
699.552551	71.506240
699.702148	71.451759
699.851807	71.512302
700.001404	71.501521
700.151062	71.529364
700.300659	71.525628
700.450256	71.476555
700.599792	71.519854
700.749390	71.445034
700.898987	71.423322
701.048523	71.421696
701.198059	71.465874
701.347595	71.474125
701.497131	71.447846
701.646667	71.494168
701.796204	71.371503
701.945679	71.317573
702.095154	71.344968
702.244690	71.412369
702.394165	71.367547
702.543640	71.356989
702.693054	71.375324
702.842529	71.362703
702.991943	71.341496
703.141418	71.289983
703.290833	71.301649
703.440247	71.314762
703.589661	71.257868
703.739014	71.342024
703.888428	71.359470
704.037781	71.432462
704.187134	71.452619
704.336487	71.455297
704.485840	71.401449
704.635193	71.357157
704.784546	71.406463
704.933838	71.453043
705.083191	71.494981
705.232483	71.426096
705.381775	71.475568
705.531067	71.456122
705.680359	71.447923
705.829590	71.452129
705.978882	71.458965
706.128113	71.463312
706.277344	71.444159
706.426575	71.512133
706.575806	71.501423
706.725037	71.438166
706.874207	71.429936
707.023438	71.397039
707.172607	71.399996
707.321777	71.398090
707.470947	71.399060
707.620117	71.402887
707.769287	71.442370
707.918396	71.395623
708.067505	71.384613
708.216675	71.443844
708.365784	71.418647
708.514893	71.470324
708.663940	71.456948
708.813049	71.430341
708.962097	71.397407
709.111206	71.390265
709.260254	71.379535
709.409302	71.297107
709.558350	71.305571
709.707397	71.336232
709.856384	71.367975
710.005432	71.360732
710.154419	71.323267
710.303406	71.315179
710.452393	71.314227
710.601379	71.296923
710.750305	71.313414
710.899292	71.396741
711.048218	71.351369
711.197205	71.301903
711.346130	71.318060
711.495056	71.324307
711.643921	71.342404
711.792847	71.358917
711.941711	71.439885
712.090637	71.550582
712.239502	71.625044
712.388367	71.619605
712.537231	71.633240
712.686096	71.623790
712.834900	71.605728
712.983765	71.576310
713.132568	71.567233
713.281372	71.621023
713.430176	71.662490
713.578979	71.691093
713.727722	71.692951
713.876526	71.640986
714.025269	71.642939
714.174072	71.651481
714.322815	71.597631
714.471558	71.610699
714.620239	71.613942
714.768982	71.615249
714.917664	71.611260
715.066406	71.471880
715.215088	71.454804
715.363770	71.543671
715.512451	71.574668
715.661072	71.555449
715.809753	71.577108
715.958374	71.593322
716.107056	71.628896
716.255676	71.580964
716.404297	71.584557
716.552917	71.655599
716.701477	71.643697
716.850098	71.637690
716.998657	71.684200
717.147217	71.690951
717.295776	71.747769
717.444336	71.695893
717.592896	71.702311
717.741455	71.735718
717.889954	71.717833
718.038513	71.784991
718.187012	71.746552
718.335510	71.699263
718.484009	71.676090
718.632446	71.655134
718.780945	71.666446
718.929382	71.685645
719.077881	71.595988
719.226318	71.616856
719.374756	71.631871
719.523132	71.512334
719.671570	71.466618
719.820007	71.489452
719.968384	71.458490
720.116760	71.495474
720.265137	71.492975
720.413513	71.508105
720.561890	71.490821
720.710205	71.437541
720.858582	71.421943
721.006897	71.427503
721.155212	71.495919
721.303528	71.514559
721.451843	71.541332
721.600159	71.590261
721.748413	71.594308
721.896729	71.579788
722.044983	71.653362
722.193237	71.653308
722.341492	71.631379
722.489746	71.691668
722.637939	71.731610
722.786194	71.736193
722.934387	71.740261
723.082581	71.678657
723.230774	71.698700
723.378967	71.682151
723.527161	71.732583
723.675354	71.795759
723.823486	71.792328
723.971619	71.770340
724.119751	71.783214
724.267883	71.810137
724.416016	71.762551
724.564148	71.782866
724.712219	71.751352
724.860352	71.770502
725.008423	71.759081
725.156494	71.791319
725.304565	71.817462
725.452637	71.791306
725.600647	71.831105
725.748718	71.836914
725.896729	71.890423
726.044739	71.956186
726.192749	71.954096
726.340759	71.988578
726.488770	71.969731
726.636719	71.912959
726.784729	71.906120
726.932678	71.931291
727.080627	71.910203
727.228577	71.939304
727.376526	71.971121
727.524414	71.949399
727.672363	71.892507
727.820251	71.914757
727.968140	71.934365
728.116028	71.873300
728.263916	71.913506
728.411804	71.977353
728.559631	71.953650
728.707520	71.954381
728.855347	71.884959
729.003174	71.866084
729.151001	71.809701
729.298828	71.866594
729.446594	71.875039
729.594421	71.909104
729.742188	71.912928
729.890015	71.898681
730.037781	71.875107
730.185486	71.850636
730.333252	71.814203
730.481018	71.831148
730.628723	71.894738
730.776428	71.909129
730.924194	71.934140
731.071899	71.959175
731.219543	71.908927
731.367249	71.870397
731.514954	71.900511
731.662598	71.923158
731.810242	71.941681
731.957886	71.927701
732.105530	71.981324
732.253174	71.942529
732.400818	71.956345
732.548401	71.944249
732.695984	71.950666
732.843567	71.969928
732.991150	72.008689
733.138733	71.998811
733.286316	72.057565
733.433838	72.031428
733.581421	72.012490
733.728943	71.971580
733.876465	71.956107
734.023987	71.942316
734.171509	71.968038
734.318970	71.945184
734.466492	71.940648
734.613953	71.917521
734.761414	71.950931
734.908875	71.958046
735.056335	71.957898
735.203796	71.967517
735.351196	71.937164
735.498657	71.936390
735.646057	71.964873
735.793457	71.935931
735.940857	71.926052
736.088257	71.941285
736.235657	71.961087
736.382996	71.994814
736.530334	72.042322
736.677734	72.070738
736.825073	72.069001
736.972351	72.135239
737.119690	72.154195
737.267029	72.175531
737.414307	72.152905
737.561584	72.172812
737.708862	72.176041
737.856140	72.192423
738.003418	72.198625
738.150696	72.209833
738.297913	72.212374
738.445190	72.227882
738.592407	72.243733
738.739624	72.290517
738.886841	72.267533
739.033997	72.285319
739.181213	72.237769
739.328369	72.269866
739.475586	72.293076
739.622742	72.287903
739.769897	72.246401
739.916992	72.190263
740.064148	72.147725
740.211304	72.158208
740.358398	72.142760
740.505493	72.166599
740.652588	72.136020
740.799683	72.135034
740.946777	72.121047
741.093811	72.086133
741.240906	72.118934
741.387939	72.100997
741.534973	72.114637
741.682007	72.059926
741.829041	72.057351
741.976013	72.032432
742.123047	72.053914
742.270020	72.056353
742.416992	72.030402
742.563965	71.997464
742.710938	72.051297
742.857910	72.060505
743.004883	72.107517
743.151794	72.104047
743.298706	72.142455
743.445618	72.118775
743.592529	72.142243
743.739441	72.157970
743.886353	72.175314
744.033203	72.211255
744.180115	72.200469
744.326965	72.214058
744.473816	72.207208
744.620667	72.216666
744.767456	72.240838
744.914307	72.232427
745.061096	72.250569
745.207947	72.224774
745.354736	72.240542
745.501526	72.253768
745.648254	72.279505
745.795044	72.311414
745.941833	72.265785
746.088562	72.297446
746.235291	72.282216
746.382019	72.275190
746.528748	72.299656
746.675476	72.281024
746.822144	72.283931
746.968872	72.229117
747.115540	72.240795
747.262207	72.231971
747.408875	72.196749
747.555542	72.211171
747.702148	72.189807
747.848816	72.170950
747.995422	72.189836
748.142029	72.177588
748.288635	72.143798
748.435242	72.154880
748.581848	72.104322
748.728394	72.090185
748.875000	72.097159
749.021545	72.060629
749.168091	72.058986
749.314636	72.086600
749.461182	72.087394
749.607666	72.106456
749.754211	72.104709
749.900696	72.137129
750.047180	72.119801
750.193665	72.138173
750.340149	72.180677
750.486633	72.188566
750.633057	72.174673
750.779541	72.194981
750.925964	72.170216
751.072388	72.175779
751.218811	72.202903
751.365234	72.216409
751.511597	72.254383
751.658020	72.244855
751.804382	72.259315
751.950745	72.290690
752.097107	72.268808
752.243469	72.263217
752.389832	72.253479
752.536133	72.283166
752.682495	72.280141
752.828796	72.289545
752.975098	72.298487
753.121399	72.313040
753.267639	72.255748
753.413940	72.277347
753.560181	72.340352
753.706482	72.343677
753.852722	72.360858
753.998962	72.396384
754.145203	72.407963
754.291382	72.368395
754.437622	72.391019
754.583801	72.410696
754.729980	72.396753
754.876160	72.386513
755.022339	72.396953
755.168518	72.368716
755.314697	72.346966
755.460815	72.340946
755.606934	72.377837
755.753052	72.378509
755.899170	72.401783
756.045288	72.374608
756.191406	72.393362
756.337463	72.395368
756.483521	72.347287
756.629639	72.354220
756.775696	72.347011
756.921692	72.309333
757.067749	72.311197
757.213806	72.360045
757.359802	72.357003
757.505798	72.344385
757.651794	72.366075
757.797791	72.386342
757.943787	72.427267
758.089783	72.465510
758.235718	72.516288
758.381653	72.510670
758.527588	72.508980
758.673523	72.534141
758.819458	72.561584
758.965393	72.614224
759.111267	72.668096
759.257202	72.691734
759.403076	72.687617
759.548950	72.713604
759.694824	72.698346
759.840698	72.722483
759.986511	72.721670
760.132385	72.702624
760.278198	72.658204
760.424011	72.653544
760.569824	72.660495
760.715637	72.652008
760.861389	72.661055
761.007202	72.621804
761.152954	72.608158
761.298706	72.597076
761.444458	72.599478
761.590210	72.585076
761.735962	72.528512
761.881653	72.511876
762.027405	72.464181
762.173096	72.425864
762.318787	72.407128
762.464478	72.372075
762.610168	72.391063
762.755798	72.383801
762.901489	72.399200
763.047119	72.434295
763.192749	72.464227
763.338379	72.487407
763.484009	72.519306
763.629639	72.527632
763.775208	72.486065
763.920837	72.522405
764.066406	72.508934
764.211975	72.494043
764.357544	72.464441
764.503052	72.442665
764.648621	72.453898
764.794128	72.456142
764.939697	72.456223
765.085205	72.485384
765.230713	72.488055
765.376221	72.529970
765.521667	72.538096
765.667175	72.530919
765.812622	72.505669
765.958069	72.498819
766.103516	72.509425
766.248962	72.510899
766.394409	72.468044
766.539795	72.477731
766.685181	72.466842
766.830627	72.426913
766.976013	72.429826
767.121399	72.440847
767.266724	72.430875
767.412109	72.486404
767.557434	72.502625
767.702820	72.467871
767.848145	72.520516
767.993469	72.522319
768.138733	72.599021
768.284058	72.571062
768.429382	72.576681
768.574646	72.592421
768.719910	72.606938
768.865173	72.592840
769.010437	72.602594
769.155701	72.610597
769.300903	72.654797
769.446167	72.632182
769.591370	72.670758
769.736572	72.712952
769.881775	72.740292
770.026978	72.763419
770.172119	72.802337
770.317322	72.793261
770.462463	72.811772
770.607605	72.829861
770.752747	72.816401
770.897888	72.836513
771.042969	72.806000
771.188110	72.819368
771.333191	72.834637
771.478271	72.797994
771.623352	72.778167
771.768433	72.802205
771.913513	72.746860
772.058533	72.723522
772.203613	72.685026
772.348633	72.720677
772.493652	72.717860
772.638672	72.712699
772.783691	72.702635
772.928650	72.658029
773.073669	72.641094
773.218628	72.609655
773.363586	72.591110
773.508545	72.591870
773.653503	72.584719
773.798462	72.545446
773.943359	72.499594
774.088257	72.521035
774.233215	72.493283
774.378113	72.506668
774.522949	72.512591
774.667847	72.490321
774.812744	72.527828
774.957581	72.573505
775.102417	72.563675
775.247253	72.509592
775.392090	72.529074
775.536926	72.528742
775.681763	72.494512
775.826538	72.554110
775.971313	72.556104
776.116089	72.585477
776.260864	72.594893
776.405640	72.615941
776.550415	72.668060
776.695129	72.676413
776.839905	72.729942
776.984619	72.701253
777.129333	72.733428
777.274048	72.808962
777.418701	72.791634
777.563416	72.802455
777.708069	72.833407
777.852722	72.811997
777.997375	72.822983
778.142029	72.869312
778.286682	72.858700
778.431335	72.816204
778.575928	72.829291
778.720520	72.833741
778.865112	72.832006
779.009705	72.856030
779.154297	72.844920
779.298889	72.842696
779.443420	72.816130
779.588013	72.838821
779.732544	72.888152
779.877075	72.900388
780.021606	72.844905
780.166077	72.855289
780.310608	72.913816
780.455078	72.931924
780.599548	72.921101
780.744019	72.947995
780.888489	72.971686
781.032959	73.020730
781.177429	73.038916
781.321838	73.103913
781.466248	73.103177
781.610657	73.097281
781.755066	73.129593
781.899475	73.052796
782.043884	73.080837
782.188232	73.047954
782.332581	73.044195
782.476929	73.015352
782.621277	72.996041
782.765625	72.988759
782.909973	73.038906
783.054260	73.031712
783.198608	73.016690
783.342896	73.002650
783.487183	73.027404
783.631470	73.003649
783.775696	72.989163
783.919983	72.905273
784.064209	72.898427
784.208435	72.881219
784.352722	72.904253
784.496887	72.885318
784.641113	72.897757
784.785339	72.945541
784.929504	72.920728
785.073669	72.949277
785.217896	72.978229
785.362000	72.989973
785.506165	72.972668
785.650330	72.971131
785.794434	72.960536
785.938599	72.916638
786.082703	72.900080
786.226807	72.916832
786.370911	72.866208
786.514954	72.859617
786.659058	72.887907
786.803101	72.953077
786.947144	72.969249
787.091187	72.950820
787.235229	72.969596
787.379272	72.995291
787.523254	72.983685
787.667297	73.019796
787.811279	73.040465
787.955261	73.057179
788.099243	73.037259
788.243225	73.052124
788.387146	73.054565
788.531128	73.073559
788.675049	73.045281
788.818970	73.042242
788.962891	73.084028
789.106812	73.102179
789.250671	73.116835
789.394592	73.086374
789.538452	73.056811
789.682312	73.020746
789.826172	73.027958
789.970032	73.020358
790.113892	73.026071
790.257690	73.017910
790.401550	73.017943
790.545349	73.015873
790.689148	73.034366
790.832947	73.008427
790.976685	73.015980
791.120483	72.983583
791.264221	72.984068
791.408020	72.963976
791.551758	72.952482
791.695435	72.962663
791.839172	72.913961
791.982910	72.900394
792.126587	72.895109
792.270264	72.941082
792.414001	72.973602
792.557617	72.996281
792.701294	72.950387
792.844971	72.965501
792.988586	72.899566
793.132263	72.847887
793.275879	72.823856
793.419495	72.776429
793.563110	72.755177
793.706665	72.770485
793.850281	72.753526
793.993835	72.781653
794.137390	72.778233
794.280945	72.792107
794.424500	72.821878
794.568054	72.843702
794.711548	72.879959
794.855103	72.902489
794.998596	72.937882
795.142090	72.916188
795.285583	72.889698
795.429016	72.883008
795.572510	72.895681
795.715942	72.932659
795.859436	73.009216
796.002869	73.070769
796.146301	73.088872
796.289673	73.143688
796.433105	73.170841
796.576477	73.172015
796.719910	73.177079
796.863281	73.196184
797.006653	73.211943
797.149963	73.169893
797.293335	73.192801
797.436707	73.115288
797.580017	73.085318
797.723328	73.089729
797.866638	73.081296
798.009949	73.108814
798.153198	73.143055
798.296509	73.131142
798.439758	73.147257
798.583008	73.158128
798.726257	73.151990
798.869507	73.099817
799.012756	73.121574
799.156006	73.060033
799.299194	73.077673
799.442383	73.065683
799.585571	73.067861
799.728760	73.027663
799.871948	73.023906
800.015076	73.086713
800.158264	73.077252
800.301392	73.123584
800.444519	73.150543
800.587646	73.137334
800.730774	73.103230
800.873840	73.070483
801.016968	73.078970
801.160034	73.095006
801.303101	73.073120
801.446167	73.064445
801.589233	73.087771
801.732239	73.128773
801.875305	73.099668
802.018311	73.176546
802.161316	73.134629
802.304321	73.135689
802.447327	73.129077
802.590332	73.130757
802.733276	73.168408
802.876282	73.128186
803.019226	73.140931
803.162170	73.162853
803.305115	73.126338
803.447998	73.128482
803.590942	73.110608
803.733826	73.124157
803.876709	73.071061
804.019592	73.050437
804.162476	73.033314
804.305359	73.056662
804.448181	72.991314
804.591064	72.979679
804.733887	72.999443
804.876709	73.006550
805.019531	73.012256
805.162354	73.040958
805.305115	73.033503
805.447937	73.075091
805.590698	73.048803
805.733459	73.089960
805.876221	73.060201
806.018982	73.055101
806.161682	73.048206
806.304443	72.982023
806.447144	73.039743
806.589844	73.055086
806.732544	73.109221
806.875244	73.097915
807.017883	73.120846
807.160583	73.070596
807.303223	73.094718
807.445862	73.083076
807.588501	73.074300
807.731140	72.990022
807.873779	73.021028
808.016357	72.973032
808.158936	72.976714
808.301575	72.978650
808.444153	72.985273
808.586670	72.963647
808.729248	72.999672
808.871826	72.998954
809.014343	73.013960
809.156860	73.073251
809.299377	73.073659
809.441895	73.073621
809.584412	73.046062
809.726868	73.052983
809.869385	73.049369
810.011841	73.063406
810.154297	73.063074
810.296753	73.085497
810.439148	73.076678
810.581604	73.092605
810.723999	73.057365
810.866455	73.135283
811.008850	73.139028
811.151184	73.143373
811.293579	73.130165
811.435974	73.159100
811.578308	73.141972
811.720642	73.142997
811.863037	73.181881
812.005310	73.218754
812.147644	73.174849
812.289978	73.174107
812.432251	73.222404
812.574524	73.240080
812.716858	73.284001
812.859070	73.304074
813.001343	73.295177
813.143616	73.318189
813.285828	73.352621
813.428101	73.357662
813.570312	73.385392
813.712524	73.379965
813.854675	73.371895
813.996887	73.403471
814.139099	73.393455
814.281250	73.386885
814.423401	73.384174
814.565552	73.381127
814.707703	73.366720
814.849792	73.356948
814.991943	73.398740
815.134033	73.364960
815.276123	73.360171
815.418213	73.349059
815.560303	73.283231
815.702393	73.261189
815.844421	73.277322
815.986511	73.286861
816.128540	73.269660
816.270569	73.296512
816.412598	73.234512
816.554565	73.190243
816.696594	73.223388
816.838562	73.185381
816.980591	73.208650
817.122559	73.226859
817.264465	73.249997
817.406433	73.255192
817.548401	73.258034
817.690308	73.221337
817.832214	73.212989
817.974121	73.254751
818.116028	73.218093
818.257935	73.230239
818.399780	73.266157
818.541687	73.280642
818.683533	73.287525
818.825378	73.260683
818.967224	73.265503
819.109070	73.220382
819.250854	73.318816
819.392700	73.369943
819.534485	73.314945
819.676270	73.289193
819.818054	73.229193
819.959839	73.218477
820.101562	73.179202
820.243347	73.234669
820.385071	73.249020
820.526794	73.257783
820.668518	73.230686
820.810242	73.222051
820.951904	73.233335
821.093628	73.249046
821.235291	73.283771
821.376953	73.250925
821.518616	73.224893
821.660278	73.257545
821.801880	73.197474
821.943542	73.244463
822.085144	73.253701
822.226746	73.236908
822.368347	73.239577
822.509949	73.272261
822.651550	73.327368
822.793091	73.288907
822.934631	73.305728
823.076233	73.234350
823.217773	73.250154
823.359253	73.255881
823.500793	73.297951
823.642273	73.322526
823.783813	73.300386
823.925293	73.249216
824.066772	73.196041
824.208252	73.248360
824.349670	73.284551
824.491150	73.248310
824.632568	73.319206
824.773987	73.316204
824.915405	73.251279
825.056824	73.251245
825.198242	73.320343
825.339600	73.292942
825.481018	73.304729
825.622375	73.349574
825.763733	73.355345
825.905029	73.379027
826.046387	73.364407
826.187744	73.357226
826.329041	73.309781
826.470337	73.281493
826.611633	73.327868
826.752930	73.383097
826.894226	73.436599
827.035461	73.436204
827.176758	73.426981
827.317993	73.465691
827.459229	73.495018
827.600464	73.534957
827.741638	73.569145
827.882874	73.571957
828.024048	73.556510
828.165222	73.548951
828.306396	73.570252
828.447571	73.575318
828.588745	73.599005
828.729858	73.599983
828.871033	73.618970
829.012146	73.605378
829.153259	73.650749
829.294373	73.622140
829.435486	73.633486
829.576538	73.641924
829.717590	73.549344
829.858704	73.534203
829.999756	73.550197
830.140808	73.560097
830.281799	73.526151
830.422852	73.511793
830.563843	73.510836
830.704834	73.492817
830.845825	73.446849
830.986816	73.465811
831.127808	73.413723
831.268799	73.366181
831.409729	73.373988
831.550659	73.376588
831.691589	73.348802
831.832520	73.353778
831.973450	73.315745
832.114319	73.415543
832.255249	73.416390
832.396118	73.422716
832.536987	73.514281
832.677856	73.549600
832.818726	73.543788
832.959534	73.523848
833.100342	73.483119
833.241211	73.506155
833.382019	73.455169
833.522827	73.493406
833.663574	73.500070
833.804382	73.513247
833.945129	73.516668
834.085876	73.505300
834.226685	73.512864
834.367371	73.495578
834.508118	73.522631
834.648865	73.549329
834.789551	73.611287
834.930237	73.514184
835.070923	73.500107
835.211609	73.496597
835.352295	73.423039
835.492981	73.372738
835.633606	73.356081
835.774231	73.350974
835.914856	73.370058
836.055481	73.317520
836.196106	73.359659
836.336670	73.333575
836.477295	73.399854
836.617859	73.370708
836.758423	73.408874
836.898987	73.434749
837.039551	73.437760
837.180054	73.447849
837.320618	73.432688
837.461121	73.404127
837.601624	73.405239
837.742126	73.479138
837.882629	73.439001
838.023071	73.402860
838.163574	73.486588
838.304016	73.495956
838.444458	73.509530
838.584900	73.509473
838.725281	73.532334
838.865723	73.546816
839.006104	73.498216
839.146545	73.552603
839.286926	73.521768
839.427307	73.571044
839.567627	73.543592
839.708008	73.569496
839.848328	73.535562
839.988647	73.525304
840.128967	73.501972
840.269287	73.521975
840.409607	73.520098
840.549927	73.512097
840.690186	73.513994
840.830444	73.532686
840.970703	73.531323
841.110962	73.544253
841.251221	73.583366
841.391418	73.568464
841.531677	73.541484
841.671875	73.597479
841.812073	73.632806
841.952271	73.578701
842.092468	73.583795
842.232605	73.563569
842.372803	73.543918
842.512939	73.570576
842.653076	73.585387
842.793213	73.629277
842.933289	73.628868
843.073425	73.643966
843.213501	73.640208
843.353638	73.627148
843.493713	73.641805
843.633789	73.623111
843.773804	73.596529
843.913879	73.566286
844.053894	73.517987
844.193909	73.528566
844.333923	73.518406
844.473938	73.453969
844.613953	73.447572
844.753906	73.468880
844.893921	73.478157
845.033875	73.490552
845.173828	73.526533
845.313782	73.529158
845.453735	73.516570
845.593628	73.528656
845.733582	73.559836
845.873474	73.577340
846.013367	73.532046
846.153259	73.547546
846.293091	73.571128
846.432983	73.581316
846.572815	73.608461
846.712646	73.644216
846.852478	73.687057
846.992310	73.660383
847.132141	73.699854
847.271912	73.709792
847.411743	73.725327
847.551514	73.708553
847.691284	73.697263
847.831055	73.646888
847.970764	73.624597
848.110535	73.625235
848.250244	73.673902
848.389954	73.652268
848.529663	73.607810
848.669373	73.621486
848.809082	73.623100
848.948730	73.630437
849.088440	73.571581
849.228088	73.597611
849.367737	73.593389
849.507385	73.578363
849.646973	73.609824
849.786621	73.647655
849.926208	73.685098
850.065796	73.591965
850.205383	73.594161
850.344971	73.569892
850.484558	73.614892
850.624084	73.668099
850.763611	73.733981
850.903198	73.694120
851.042725	73.632446
851.182190	73.626550
851.321716	73.720654
851.461182	73.678411
851.600708	73.700472
851.740173	73.678489
851.879639	73.712973
852.019104	73.664163
852.158508	73.693546
852.297974	73.692154
852.437378	73.646532
852.576782	73.625760
852.716187	73.619169
852.855591	73.734065
852.994934	73.741842
853.134338	73.779288
853.273682	73.742208
853.413025	73.747670
853.552368	73.717342
853.691711	73.724062
853.830994	73.788744
853.970337	73.784038
854.109619	73.719908
854.248901	73.732914
854.388184	73.742227
854.527466	73.721258
854.666687	73.712629
854.805969	73.781684
854.945190	73.805806
855.084412	73.840554
855.223633	73.840061
855.362854	73.836980
855.502014	73.819564
855.641235	73.763309
855.780396	73.698141
855.919556	73.700984
856.058716	73.707647
856.197876	73.687626
856.336975	73.656720
856.476135	73.723027
856.615234	73.700436
856.754333	73.721802
856.893433	73.730386
857.032471	73.767530
857.171570	73.770344
857.310608	73.858542
857.449646	73.844860
857.588745	73.819675
857.727722	73.774726
857.866760	73.814562
858.005798	73.801296
858.144775	73.860189
858.283752	73.860950
858.422729	73.918231
858.561707	73.929223
858.700684	73.942900
858.839600	73.915632
858.978516	73.927034
859.117493	73.946899
859.256409	73.939286
859.395264	73.920307
859.534180	73.939397
859.673096	73.936940
859.811951	73.885112
859.950806	73.891785
860.089661	73.821268
860.228516	73.844380
860.367310	73.860933
860.506165	73.833022
860.644958	73.774145
860.783752	73.778862
860.922546	73.782376
861.061340	73.776190
861.200134	73.743927
861.338867	73.789111
861.477600	73.783839
861.616333	73.758001
