# Wavelength (nm)	Smoothed Intensity
299.383362	22.899752
299.552002	23.140490
299.720612	23.382249
299.889191	23.624948
300.057800	23.868510
300.226379	24.112855
300.394958	24.357904
300.563538	24.603578
300.732117	24.849797
300.900696	25.096483
301.069244	25.343557
301.237793	25.590939
301.406342	25.838551
301.574890	26.086313
301.743408	26.334146
301.911957	26.581971
302.080475	26.829710
302.248993	27.077282
302.417480	27.324609
302.585999	27.571612
302.754486	27.940817
302.922974	28.185579
303.091461	28.430313
303.259949	28.674363
303.428436	28.917584
303.596893	29.160306
303.765350	29.402685
303.933807	29.644057
304.102264	29.883998
304.270691	30.122719
304.439117	30.360218
304.607574	30.597419
304.776001	30.832838
304.944397	31.066979
305.112823	31.299667
305.281219	31.530613
305.449615	31.760572
305.618011	31.988292
305.786407	32.214832
305.954773	32.440056
306.123169	32.664461
306.291534	32.887182
306.459900	33.108235
306.628235	33.327578
306.796600	33.544694
306.964935	33.760331
307.133270	33.974087
307.301605	34.187613
307.469940	34.401125
307.638245	34.613444
307.806580	34.824688
307.974884	35.034654
308.143188	35.242208
308.311462	35.449883
308.479767	35.655678
308.648041	35.860545
308.816315	36.064603
308.984589	36.267694
309.152863	36.470024
309.321106	36.670508
309.489380	36.869838
309.657623	37.068549
309.825867	37.265554
309.994080	37.460486
310.162323	37.654278
310.330536	37.846577
310.498749	38.038044
310.666962	38.227612
310.835175	38.414810
311.003357	38.599727
311.171539	38.782572
311.339752	38.963055
311.507904	39.141344
311.676086	39.316177
311.844238	39.488118
312.012421	39.658545
312.180573	39.826597
312.348724	39.992306
312.516846	40.156360
312.684998	40.318574
312.853119	40.478983
313.021240	40.637520
313.189362	40.794703
313.357452	40.950438
313.525574	41.105852
313.693665	41.259702
313.861755	41.412822
314.029846	41.564042
314.197937	41.713070
314.365997	41.862080
314.534058	42.010178
314.702118	42.157278
314.870178	42.304914
315.038239	42.451969
315.206268	42.599033
315.374298	42.745437
315.542328	42.891931
315.710358	43.037344
315.878357	43.182130
316.046387	43.326448
316.214386	43.468978
316.382385	43.610604
316.550385	43.751662
316.718353	43.891854
316.886353	44.029673
317.054321	44.166709
317.222290	44.300757
317.390259	44.432679
317.558197	44.563710
317.726135	44.691868
317.894104	44.818183
318.062012	44.942393
318.229950	45.063991
318.397888	45.184231
318.565796	45.302956
318.733704	45.419515
318.901611	45.533001
319.069519	45.644873
319.237396	45.754512
319.405304	45.862705
319.573181	45.969216
319.741058	46.073535
319.908905	46.176336
320.076782	46.278065
320.244629	46.378093
320.412476	46.477058
320.580322	46.575680
320.748169	46.674975
320.915985	46.774768
321.083801	46.874289
321.251617	46.973706
321.419434	47.073922
321.587250	47.174099
321.755035	47.274352
321.922821	47.374315
322.090607	47.474099
322.258392	47.572933
322.426178	47.671878
322.593933	47.769531
322.761719	47.865620
322.929474	47.961566
323.097198	48.056925
323.264954	48.150543
323.432678	48.243043
323.600403	48.335920
323.768127	48.426367
323.935852	48.515466
324.103577	48.602529
324.271271	48.687530
324.438965	48.771919
324.606659	48.854918
324.774353	48.935901
324.942047	49.015172
325.109711	49.091757
325.277374	49.166203
325.445038	49.239358
325.612701	49.311826
325.780334	49.383081
325.947968	49.454017
326.115631	49.524100
326.283234	49.594071
326.450867	49.663652
326.618500	49.732810
326.786102	49.801652
326.953705	49.870575
327.121307	49.940428
327.288879	50.009985
327.456482	50.080357
327.624054	50.150912
327.791626	50.221104
327.959198	50.290732
328.126770	50.359947
328.294312	50.429260
328.461853	50.499087
328.629395	50.570085
328.796936	50.641230
328.964478	50.712580
329.131989	50.783331
329.299500	50.854066
329.467010	50.926606
329.634521	50.999491
329.802002	51.073854
329.969513	51.149500
330.136993	51.225014
330.304474	51.299360
330.471954	51.373813
330.639404	51.448778
330.806854	51.523512
330.974335	51.598000
331.141754	51.673169
331.309204	51.748694
331.476654	51.824033
331.644073	51.899461
331.811493	51.973845
331.978912	52.046843
332.146332	52.117908
332.313721	52.187644
332.481110	52.256006
332.648499	52.323598
332.815887	52.388597
332.983276	52.450876
333.150635	52.510603
333.317993	52.568798
333.485352	52.625420
333.652710	52.679886
333.820068	52.731753
333.987396	52.782697
334.154724	52.829632
334.322052	52.873693
334.489380	52.914892
334.656708	52.953827
334.824005	52.992001
334.991302	53.028352
335.158600	53.064248
335.325897	53.099144
335.493164	53.133924
335.660431	53.168941
335.827728	53.205101
335.994965	53.241749
336.162231	53.278419
336.329498	53.316946
336.496735	53.354318
336.663971	53.391076
336.831207	53.428220
336.998413	53.466497
337.165649	53.506279
337.332855	53.546075
337.500061	53.588562
337.667267	53.633320
337.834442	53.677988
338.001648	53.722944
338.168823	53.767807
338.335999	53.812678
338.503174	53.858462
338.670319	53.904942
338.837494	53.951653
339.004639	53.999069
339.171783	54.046551
339.338898	54.092791
339.506042	54.139135
339.673157	54.184959
339.840271	54.231238
340.007385	54.276800
340.174500	54.321307
340.341583	54.365190
340.508667	54.407931
340.675751	54.449289
340.842834	54.490071
341.009918	54.529594
341.176971	54.569171
341.344055	54.608969
341.511108	54.648318
341.678131	54.688580
341.845184	54.728689
342.012207	54.767636
342.179230	54.807195
342.346252	54.845299
342.513275	54.882339
342.680298	54.919130
342.847290	54.955090
343.014282	54.989257
343.181274	55.022650
343.348267	55.055940
343.515228	55.089463
343.682190	55.122615
343.849152	55.155205
344.016113	55.187537
344.183075	55.219285
344.350006	55.249983
344.516968	55.280648
344.683899	55.311164
344.850800	55.342156
345.017731	55.372773
345.184631	55.402154
345.351532	55.431459
345.518433	55.459000
345.685333	55.486623
345.852234	55.514209
346.019104	55.541587
346.185974	55.568763
346.352844	55.595228
346.519714	55.622084
346.686554	55.648595
346.853424	55.674985
347.020264	55.701461
347.187073	55.728044
347.353912	55.753398
347.520721	55.778318
347.687561	55.803408
347.854370	55.827915
348.021179	55.852022
348.187958	55.875570
348.354736	55.897937
348.521545	55.919942
348.688324	55.942303
348.855072	55.964675
349.021851	55.987073
349.188599	56.008691
349.355347	56.029956
349.522095	56.052114
349.688843	56.074464
349.855560	56.097692
350.022308	56.120740
350.189026	56.143496
350.355743	56.165354
350.522430	56.187032
350.689148	56.210671
350.855835	56.235249
351.022522	56.260072
351.189209	56.285905
351.355865	56.311186
351.522522	56.335944
351.689209	56.360749
351.855865	56.385389
352.022491	56.409084
352.189148	56.434283
352.355774	56.458536
352.522400	56.483580
352.689026	56.508884
352.855652	56.533540
353.022247	56.559190
353.188843	56.583591
353.355438	56.608078
353.522034	56.632722
353.688629	56.656935
353.855194	56.681634
354.021759	56.706243
354.188324	56.730484
354.354889	56.754651
354.521454	56.778729
354.687988	56.802815
354.854523	56.827647
355.021057	56.853006
355.187592	56.878791
355.354095	56.905046
355.520599	56.929747
355.687134	56.954810
355.853607	56.979945
356.020111	57.005545
356.186584	57.029896
356.353088	57.054020
356.519562	57.077504
356.686005	57.101267
356.852478	57.124633
357.018921	57.148718
357.185364	57.172758
357.351807	57.194275
357.518250	57.213982
357.684692	57.232753
357.851105	57.249654
358.017517	57.266481
358.183929	57.282176
358.350311	57.296581
358.516724	57.310839
358.683105	57.325483
358.849487	57.340219
359.015869	57.354708
359.182220	57.367805
359.348602	57.379778
359.514954	57.392566
359.681305	57.404909
359.847656	57.418072
360.013977	57.431490
360.180298	57.444852
360.346649	57.458692
360.512939	57.471308
360.679260	57.485062
360.845581	57.499469
361.011871	57.514455
361.178162	57.530269
361.344452	57.546583
361.510712	57.563998
361.677002	57.581780
361.843262	57.598589
362.009521	57.615191
362.175751	57.631871
362.342010	57.649475
362.508240	57.667490
362.674469	57.685671
362.840698	57.704557
363.006927	57.723496
363.173126	57.741950
363.339325	57.759457
363.505524	57.776565
363.671722	57.792762
363.837921	57.808914
364.004089	57.826006
364.170258	57.842757
364.336426	57.859720
364.502594	57.876465
364.668762	57.892584
364.834900	57.908019
365.001038	57.922865
365.167175	57.939070
365.333282	57.954340
365.499420	57.969728
365.665527	57.985097
365.831635	57.999869
365.997742	58.014055
366.163818	58.027324
366.329926	58.039871
366.496002	58.052088
366.662079	58.064369
366.828156	58.076643
366.994202	58.089103
367.160248	58.101807
367.326294	58.113807
367.492340	58.125638
367.658386	58.137247
367.824402	58.149670
367.990448	58.162339
368.156464	58.174095
368.322449	58.186763
368.488464	58.199466
368.654449	58.212383
368.820435	58.224943
368.986420	58.237289
369.152405	58.250524
369.318390	58.264406
369.484344	58.278308
369.650299	58.293324
369.816254	58.308408
369.982178	58.324210
370.148132	58.340509
370.314056	58.356744
370.479980	58.373427
370.645905	58.389853
370.811798	58.407517
370.977692	58.425071
371.143616	58.443228
371.309479	58.461861
371.475372	58.482255
371.641266	58.504292
371.807129	58.525750
371.972992	58.548337
372.138855	58.571070
372.304688	58.592602
372.470551	58.613303
372.636383	58.634194
372.802216	58.654771
372.968018	58.674527
373.133850	58.693543
373.299652	58.711517
373.465454	58.729096
373.631256	58.745822
373.797058	58.761439
373.962830	58.776767
374.128601	58.791695
374.294373	58.806987
374.460144	58.820472
374.625916	58.833250
374.791656	58.845054
374.957397	58.854306
375.123138	58.862789
375.288879	58.870001
375.454590	58.877677
375.620331	58.884924
375.786041	58.892005
375.951721	58.898255
376.117432	58.903995
376.283112	58.908932
376.448822	58.915023
376.614471	58.920503
376.780151	58.925107
376.945831	58.931037
377.111481	58.937598
377.277130	58.944799
377.442780	58.951676
377.608429	58.958530
377.774048	58.965648
377.939667	58.972795
378.105286	58.979751
378.270905	58.986265
378.436523	58.992281
378.602112	58.998621
378.767700	59.002932
378.933289	59.007014
379.098877	59.011793
379.264435	59.016603
379.429993	59.021695
379.595551	59.027489
379.761108	59.032686
379.926666	59.038409
380.092194	59.044325
380.257721	59.050118
380.423248	59.057126
380.588776	59.064866
380.754272	59.073041
380.919800	59.080743
381.085297	59.088827
381.250793	59.097290
381.416260	59.106406
381.581757	59.117000
381.747223	59.128564
381.912689	59.140074
382.078125	59.152849
382.243591	59.167034
382.409027	59.181253
382.574463	59.196278
382.739899	59.211916
382.905334	59.228033
383.070740	59.243493
383.236176	59.259351
383.401581	59.276726
383.566956	59.293876
383.732361	59.310189
383.897736	59.326527
384.063110	59.342508
384.228485	59.358635
384.393860	59.375450
384.559204	59.391892
384.724579	59.407293
384.889923	59.423073
385.055237	59.438499
385.220581	59.453204
385.385895	59.467778
385.551239	59.482300
385.716522	59.496414
385.881836	59.510167
386.047150	59.523437
386.212433	59.536303
386.377716	59.549399
386.542999	59.563060
386.708252	59.575734
386.873535	59.588600
387.038788	59.600882
387.204041	59.611954
387.369293	59.623305
387.534515	59.635415
387.699738	59.646532
387.864960	59.657756
388.030182	59.667850
388.195404	59.675782
388.360596	59.683716
388.525787	59.692756
388.690979	59.701466
388.856171	59.709224
389.021362	59.716289
389.186523	59.723136
389.351685	59.729708
389.516846	59.735054
389.682007	59.740717
389.847137	59.744874
390.012268	59.749372
390.177399	59.752607
390.342529	59.755536
390.507629	59.758026
390.672760	59.760326
390.837860	59.761549
391.002960	59.761275
391.168030	59.759551
391.333130	59.759279
391.498199	59.759144
391.663269	59.759029
391.828339	59.758679
391.993378	59.759234
392.158447	59.760976
392.323486	59.763550
392.488525	59.765928
392.653534	59.768564
392.818573	59.771785
392.983582	59.777418
393.148590	59.783567
393.313599	59.791184
393.478577	59.799270
393.643585	59.809085
393.808563	59.819532
393.973541	59.830314
394.138489	59.840930
394.303467	59.853159
394.468414	59.866452
394.633362	59.879993
394.798309	59.895089
394.963226	59.910550
395.128174	59.925652
395.293091	59.940875
395.458008	59.955453
395.622894	59.969898
395.787811	59.984150
395.952698	59.997453
396.117584	60.011160
396.282471	60.022691
396.447327	60.035251
396.612213	60.045167
396.777069	60.055884
396.941925	60.066175
397.106750	60.076411
397.271606	60.085596
397.436432	60.095281
397.601257	60.104735
397.766083	60.115096
397.930878	60.124238
398.095703	60.132632
398.260498	60.140961
398.425293	60.148827
398.590057	60.155500
398.754852	60.162249
398.919617	60.169467
399.084381	60.177141
399.249146	60.184932
399.413879	60.192951
399.578644	60.199997
399.743378	60.206092
399.908112	60.212419
400.072815	60.218296
400.237549	60.223270
400.402252	60.228975
400.566956	60.233908
400.731659	60.237910
400.896332	60.243039
401.061035	60.247442
401.225708	60.253399
401.390381	60.259987
401.555023	60.267010
401.719696	60.274740
401.884338	60.282666
402.048981	60.289927
402.213623	60.296805
402.378235	60.303484
402.542847	60.311262
402.707489	60.319590
402.872070	60.329448
403.036682	60.339143
403.201294	60.350428
403.365875	60.361820
403.530457	60.373855
403.695007	60.385521
403.859589	60.397997
404.024139	60.410867
404.188690	60.422736
404.353241	60.434088
404.517792	60.444664
404.682312	60.453792
404.846832	60.463639
405.011353	60.473558
405.175873	60.484298
405.340393	60.494194
405.504883	60.503312
405.669373	60.511304
405.833862	60.519699
405.998322	60.526907
406.162811	60.533809
406.327271	60.540839
406.491730	60.546775
406.656189	60.552744
406.820618	60.557533
406.985046	60.560863
407.149475	60.564878
407.313904	60.570414
407.478333	60.574656
407.642731	60.580174
407.807129	60.585151
407.971527	60.590460
408.135925	60.594321
408.300293	60.596915
408.464661	60.598496
408.629028	60.601508
408.793396	60.605066
408.957764	60.609020
409.122101	60.612240
409.286438	60.616539
409.450775	60.620509
409.615112	60.625863
409.779419	60.630809
409.943726	60.637087
410.108032	60.643785
410.272339	60.650896
410.436646	60.659338
410.600922	60.666450
410.765198	60.675757
410.929474	60.684716
411.093750	60.695676
411.257996	60.708962
411.422241	60.721932
411.586487	60.736733
411.750732	60.751861
411.914948	60.767187
412.079193	60.781907
412.243408	60.798265
412.407623	60.814159
412.571808	60.830784
412.735992	60.847299
412.900208	60.864051
413.064392	60.880681
413.228546	60.894581
413.392731	60.908563
413.556885	60.923173
413.721039	60.936382
413.885193	60.948385
414.049316	60.960632
414.213470	60.970543
414.377594	60.979035
414.541718	60.985901
414.705811	60.993016
414.869934	61.000183
415.034027	61.007667
415.198120	61.014048
415.362213	61.021836
415.526276	61.028982
415.690338	61.037888
415.854431	61.045078
416.018463	61.053046
416.182526	61.059505
416.346558	61.067302
416.510620	61.076107
416.674622	61.085873
416.838654	61.096805
417.002686	61.106980
417.166687	61.119181
417.330688	61.130553
417.494690	61.144902
417.658661	61.159001
417.822662	61.172464
417.986633	61.186655
418.150604	61.199732
418.314545	61.212458
418.478516	61.226324
418.642456	61.240162
418.806396	61.254651
418.970337	61.268915
419.134247	61.283512
419.298187	61.297534
419.462097	61.310243
419.625977	61.320879
419.789886	61.331307
419.953766	61.341487
420.117676	61.350616
420.281555	61.359835
420.445404	61.369120
420.609283	61.376209
420.773132	61.383066
420.936981	61.390508
421.100830	61.399674
421.264648	61.407824
421.428497	61.415621
421.592316	61.423776
421.756134	61.431745
421.919922	61.437644
422.083740	61.442797
422.247528	61.445974
422.411316	61.449247
422.575104	61.451802
422.738861	61.455832
422.902618	61.461372
423.066406	61.466952
423.230133	61.471847
423.393890	61.476421
423.557617	61.482370
423.721344	61.488855
423.885071	61.497459
424.048798	61.504448
424.212524	61.511922
424.376221	61.518734
424.539917	61.525390
424.703583	61.531932
424.867279	61.538187
425.030945	61.544843
425.194611	61.553014
425.358276	61.561218
425.521942	61.569903
425.685577	61.578549
425.849213	61.587919
426.012848	61.595903
426.176483	61.603936
426.340118	61.612004
426.503723	61.619577
426.667328	61.627120
426.830933	61.633697
426.994507	61.638403
427.158112	61.645108
427.321686	61.652846
427.485229	61.659787
427.648804	61.665331
427.812378	61.671738
427.975922	61.679068
428.139465	61.686098
428.302979	61.692757
428.466522	61.700008
428.630035	61.708237
428.793549	61.717761
428.957062	61.728374
429.120575	61.738888
429.284058	61.750651
429.447540	61.762480
429.611023	61.775088
429.774506	61.789367
429.937958	61.805252
430.101410	61.822506
430.264862	61.839906
430.428314	61.854773
430.591736	61.869493
430.755188	61.883131
430.918610	61.897071
431.082031	61.911387
431.245422	61.925992
431.408813	61.941539
431.572235	61.957540
431.735596	61.973202
431.898987	61.987399
432.062378	62.001433
432.225739	62.013429
432.389099	62.024903
432.552429	62.036491
432.715790	62.047697
432.879120	62.059079
433.042450	62.070373
433.205780	62.080421
433.369110	62.089705
433.532410	62.099520
433.695709	62.108640
433.859009	62.117339
434.022308	62.127313
434.185577	62.138928
434.348846	62.150953
434.512115	62.162360
434.675385	62.173469
434.838654	62.184624
435.001892	62.195267
435.165131	62.206225
435.328369	62.216261
435.491577	62.226579
435.654816	62.238294
435.818024	62.249962
435.981232	62.263355
436.144409	62.275929
436.307617	62.286869
436.470795	62.296703
436.633972	62.303961
436.797119	62.309957
436.960297	62.316013
437.123444	62.321237
437.286591	62.325842
437.449738	62.329931
437.612885	62.333008
437.776001	62.335965
437.939117	62.338682
438.102234	62.339389
438.265350	62.340535
438.428436	62.342069
438.591522	62.343568
438.754608	62.345880
438.917694	62.346518
439.080750	62.347383
439.243835	62.347315
439.406891	62.348134
439.569916	62.349071
439.732971	62.351403
439.895996	62.355550
440.059021	62.360945
440.222046	62.368518
440.385071	62.378272
440.548065	62.389470
440.711060	62.400955
440.874054	62.413421
441.037048	62.427037
441.200012	62.440440
441.363007	62.455525
441.525970	62.471305
441.688904	62.486791
441.851868	62.503057
442.014801	62.518642
442.177734	62.534941
442.340668	62.551362
442.503601	62.564834
442.666504	62.576737
442.829407	62.588450
442.992310	62.598850
443.155212	62.609335
443.318085	62.619731
443.480957	62.628281
443.643829	62.635926
443.806702	62.643344
443.969543	62.649763
444.132416	62.655947
444.295258	62.660566
444.458069	62.662046
444.620911	62.664265
444.783722	62.666344
444.946533	62.668992
445.109344	62.672552
445.272156	62.677912
445.434937	62.685790
445.597717	62.694504
445.760498	62.707030
445.923279	62.720633
446.086060	62.735945
446.248810	62.752603
446.411560	62.770474
446.574280	62.790200
446.737030	62.809979
446.899750	62.830086
447.062469	62.850404
447.225189	62.871286
447.387909	62.892192
447.550598	62.913365
447.713287	62.939298
447.875977	62.963566
448.038666	62.987672
448.201324	63.011432
448.363983	63.033337
448.526642	63.053891
448.689301	63.071402
448.851929	63.085090
449.014587	63.096544
449.177216	63.107128
449.339813	63.116511
449.502441	63.123563
449.665039	63.128295
449.827637	63.129385
449.990234	63.129887
450.152832	63.129251
450.315399	63.125475
450.477966	63.120488
450.640533	63.113545
450.803101	63.105935
450.965637	63.100372
451.128174	63.096978
451.290710	63.092426
451.453247	63.086439
451.615784	63.080165
451.778290	63.073646
451.940796	63.067324
452.103302	63.062496
452.265778	63.058054
452.428253	63.054789
452.590729	63.051763
452.753204	63.050516
452.915680	63.051491
453.078125	63.055230
453.240570	63.061831
453.403015	63.069705
453.565460	63.079930
453.727875	63.091480
453.890289	63.103643
454.052704	63.118299
454.215118	63.131321
454.377533	63.144436
454.539917	63.157650
454.702301	63.171866
454.864685	63.187977
455.027039	63.205967
455.189392	63.223883
455.351746	63.242054
455.514099	63.259695
455.676453	63.276988
455.838776	63.292363
456.001099	63.309418
456.163422	63.326309
456.325745	63.342334
456.488037	63.357243
456.650330	63.370713
456.812622	63.383709
456.974915	63.395125
457.137177	63.405908
457.299469	63.415392
457.461731	63.421212
457.623962	63.421918
457.786224	63.422634
457.948456	63.422933
458.110687	63.422186
458.272919	63.419365
458.435150	63.417097
458.597351	63.416797
458.759552	63.416839
458.921753	63.416362
459.083923	63.418059
459.246124	63.419271
459.408295	63.419319
459.570465	63.417836
459.732635	63.415652
459.894775	63.415564
460.056915	63.416193
460.219055	63.418935
460.381195	63.424693
460.543304	63.430463
460.705444	63.437978
460.867554	63.448807
461.029633	63.461218
461.191742	63.475237
461.353821	63.488456
461.515900	63.500067
461.677979	63.511042
461.840057	63.522105
462.002106	63.534528
462.164154	63.546583
462.326202	63.559821
462.488251	63.571298
462.650269	63.582192
462.812286	63.593991
462.974304	63.604578
463.136322	63.612093
463.298309	63.618081
463.460297	63.624246
463.622284	63.628281
463.784271	63.629552
463.946259	63.629964
464.108215	63.631383
464.270172	63.630790
464.432129	63.629099
464.594055	63.627815
464.755981	63.628821
464.917908	63.630027
465.079834	63.630302
465.241760	63.628449
465.403656	63.627847
465.565552	63.626965
465.727448	63.626214
465.889343	63.625961
466.051208	63.627127
466.213074	63.629956
466.374939	63.634204
466.536804	63.640481
466.698639	63.644656
466.860504	63.648311
467.022308	63.655544
467.184143	63.662134
467.345978	63.667781
467.507782	63.673356
467.669586	63.678313
467.831390	63.683616
467.993164	63.688911
468.154938	63.693335
468.316711	63.696595
468.478485	63.700849
468.640259	63.704382
468.802002	63.707681
468.963745	63.711295
469.125488	63.715344
469.287231	63.718909
469.448944	63.722977
469.610657	63.729053
469.772369	63.735435
469.934082	63.742452
470.095764	63.750537
470.257446	63.759442
470.419128	63.771228
470.580811	63.783443
470.742462	63.796621
470.904144	63.811483
471.065796	63.827241
471.227417	63.844379
471.389069	63.863043
471.550690	63.881652
471.712311	63.902034
471.873932	63.922732
472.035522	63.941524
472.197144	63.959731
472.358734	63.978223
472.520294	63.996185
472.681885	64.013251
472.843445	64.027040
473.005005	64.037467
473.166565	64.046887
473.328125	64.055073
473.489655	64.059270
473.651184	64.061126
473.812714	64.061621
473.974243	64.062403
474.135742	64.060594
474.297241	64.056825
474.458740	64.049635
474.620239	64.042668
474.781738	64.037047
474.943207	64.030640
475.104675	64.024887
475.266113	64.019340
475.427582	64.016531
475.589020	64.014829
475.750458	64.012988
475.911896	64.010848
476.073303	64.011021
476.234741	64.013918
476.396149	64.019435
476.557526	64.026127
476.718933	64.035071
476.880310	64.046362
477.041687	64.058259
477.203064	64.071226
477.364441	64.086904
477.525787	64.104231
477.687134	64.123148
477.848480	64.140589
478.009827	64.157853
478.171143	64.173222
478.332458	64.187609
478.493774	64.201719
478.655090	64.214232
478.816376	64.226065
478.977661	64.236836
479.138947	64.247123
479.300232	64.256938
479.461487	64.265466
479.622772	64.274335
479.784027	64.281525
479.945251	64.288110
480.106506	64.293777
480.267731	64.299838
480.428955	64.303515
480.590179	64.305773
480.751373	64.307834
480.912567	64.311339
481.073761	64.314436
481.234955	64.317288
481.396149	64.320934
481.557312	64.325982
481.718475	64.332877
481.879639	64.338826
482.040802	64.343215
482.201935	64.350500
482.363068	64.360084
482.524200	64.369521
482.685303	64.380142
482.846436	64.389450
483.007538	64.401988
483.168640	64.415643
483.329712	64.427852
483.490814	64.441483
483.651886	64.456184
483.812958	64.469959
483.973999	64.482464
484.135071	64.492880
484.296112	64.504725
484.457153	64.515787
484.618195	64.527912
484.779205	64.539248
484.940216	64.550179
485.101227	64.561519
485.262238	64.572753
485.423218	64.582304
485.584229	64.590255
485.745209	64.596113
485.906158	64.600509
486.067139	64.601968
486.228088	64.601857
486.389038	64.599446
486.549988	64.596309
486.710907	64.591141
486.871857	64.585284
487.032776	64.580127
487.193665	64.573610
487.354584	64.567832
487.515472	64.563103
487.676361	64.558636
487.837250	64.554984
487.998138	64.550414
488.158997	64.545057
488.319855	64.540307
488.480713	64.537509
488.641541	64.535325
488.802399	64.532341
488.963226	64.532052
489.124054	64.534102
489.284851	64.538574
489.445679	64.542935
489.606476	64.548819
489.767273	64.557182
489.928040	64.566396
490.088837	64.576505
490.249603	64.587881
490.410370	64.600662
490.571106	64.613832
490.731873	64.626727
490.892609	64.640657
491.053345	64.653304
491.214081	64.664983
491.374786	64.676511
491.535492	64.687608
491.696198	64.696183
491.856903	64.705177
492.017578	64.714575
492.178284	64.723143
492.338959	64.729041
492.499603	64.734815
492.660278	64.738720
492.820923	64.742308
492.981567	64.745724
493.142212	64.748678
493.302826	64.750873
493.463440	64.752206
493.624054	64.755799
493.784668	64.758875
493.945282	64.761080
494.105865	64.763925
494.266449	64.765624
494.427032	64.769053
494.587585	64.773836
494.748169	64.777902
494.908722	64.783050
495.069244	64.786849
495.229797	64.791847
495.390320	64.797430
495.550842	64.803435
495.711365	64.810472
495.871887	64.818582
496.032379	64.827136
496.192871	64.835677
496.353363	64.843685
496.513855	64.850787
496.674316	64.856934
496.834778	64.861641
496.995239	64.866399
497.155670	64.871482
497.316132	64.875076
497.476562	64.878526
497.636993	64.882547
497.797394	64.885957
497.957825	64.890792
498.118225	64.896775
498.278625	64.901412
498.438995	64.903075
498.599396	64.903677
498.759766	64.904852
498.920135	64.903580
499.080475	64.903252
499.240845	64.902631
499.401184	64.901983
499.561523	64.902175
499.721832	64.902971
499.882172	64.905993
500.042480	64.908065
500.202789	64.911158
500.363098	64.913904
500.523376	64.916208
500.683655	64.918728
500.843933	64.919857
501.004211	64.920073
501.164459	64.920714
501.324707	64.920996
501.484955	64.922680
501.645203	64.926571
501.805420	64.930411
501.965668	64.935076
502.125885	64.941483
502.286072	64.948162
502.446289	64.954740
502.606476	64.959877
502.766663	64.965446
502.926849	64.971885
503.087006	64.977383
503.247162	64.984382
503.407318	64.991523
503.567474	64.998666
503.727600	65.006589
503.887756	65.015680
504.047882	65.024527
504.207977	65.034764
504.368103	65.041302
504.528198	65.048105
504.688293	65.055396
504.848389	65.063117
505.008453	65.071085
505.168549	65.078376
505.328613	65.084541
505.488647	65.090325
505.648712	65.096968
505.808746	65.103213
505.968781	65.108088
506.128815	65.112494
506.288818	65.114442
506.448853	65.115555
506.608856	65.115536
506.768829	65.114601
506.928833	65.114166
507.088806	65.114119
507.248779	65.114982
507.408752	65.114688
507.568695	65.116310
507.728668	65.117264
507.888611	65.117082
508.048523	65.117042
508.208466	65.118006
508.368378	65.119270
508.528290	65.121147
508.688202	65.123117
508.848114	65.125255
509.007996	65.128653
509.167877	65.132357
509.327759	65.135214
509.487610	65.141161
509.647461	65.147940
509.807312	65.154141
509.967163	65.160113
510.127014	65.165974
510.286835	65.171795
510.446655	65.177347
510.606476	65.182576
510.766266	65.190801
510.926086	65.196999
511.085876	65.203086
511.245667	65.208345
511.405426	65.212465
511.565186	65.215003
511.724945	65.219796
511.884705	65.223232
512.044434	65.225489
512.204163	65.229023
512.363953	65.233922
512.523621	65.239165
512.683350	65.244214
512.843079	65.249746
513.002747	65.254430
513.162476	65.261200
513.322144	65.266631
513.481812	65.270311
513.641479	65.274719
513.801147	65.280661
513.960815	65.283288
514.120422	65.287606
514.280090	65.294693
514.439697	65.300905
514.599365	65.307344
514.758972	65.315137
514.918579	65.320907
515.078186	65.325602
515.237732	65.331126
515.397339	65.334364
515.556946	65.335828
515.716492	65.340228
515.876038	65.342602
516.035583	65.343048
516.195129	65.344996
516.354675	65.346294
516.514221	65.347787
516.673767	65.349076
516.833252	65.349757
516.992798	65.348903
517.152283	65.348287
517.311768	65.348755
517.471252	65.349327
517.630737	65.351641
517.790222	65.352932
517.949646	65.355572
518.109131	65.356600
518.268555	65.360730
518.427979	65.364685
518.587463	65.369418
518.746887	65.373441
518.906250	65.375816
519.065674	65.379873
519.225098	65.385103
519.384460	65.390985
519.543884	65.396273
519.703247	65.402349
519.862610	65.410083
520.021973	65.415740
520.181335	65.419872
520.340698	65.425632
520.500000	65.430422
520.659363	65.431074
520.818665	65.431366
520.977966	65.431711
521.137329	65.430815
521.296631	65.432086
521.455872	65.434719
521.615173	65.435934
521.774475	65.437631
521.933716	65.442499
522.093018	65.445752
522.252258	65.448349
522.411499	65.450850
522.570740	65.452691
522.729980	65.454504
522.889221	65.456546
523.048401	65.458903
523.207642	65.463966
523.366821	65.471192
523.526001	65.477075
523.685181	65.484660
523.844360	65.493074
524.003540	65.499532
524.162720	65.508073
524.321838	65.515265
524.481018	65.523197
524.640137	65.530392
524.799316	65.538586
524.958435	65.547121
525.117554	65.554768
525.276611	65.565180
525.435730	65.576522
525.594849	65.585540
525.753906	65.593491
525.912964	65.599121
526.072083	65.602231
526.231140	65.603690
526.390198	65.604189
526.549255	65.605084
526.708252	65.605553
526.867310	65.603483
527.026306	65.604387
527.185364	65.607652
527.344360	65.611041
527.503357	65.614187
527.662354	65.616181
527.821350	65.614877
527.980286	65.611927
528.139282	65.608982
528.298218	65.605370
528.457214	65.600786
528.616150	65.594773
528.775085	65.590136
528.934021	65.586983
529.092896	65.586753
529.251831	65.589874
529.410767	65.593322
529.569641	65.595246
529.728516	65.596415
529.887451	65.598467
530.046326	65.599873
530.205200	65.599220
530.364014	65.598755
530.522888	65.597532
530.681702	65.599099
530.840576	65.601892
530.999390	65.606305
531.158203	65.615174
531.317017	65.623417
531.475830	65.631812
531.634644	65.637264
531.793457	65.641569
531.952209	65.646833
532.110962	65.653372
532.269775	65.661338
532.428528	65.667462
532.587280	65.673998
532.746033	65.682635
532.904724	65.691488
533.063477	65.699608
533.222229	65.711238
533.380920	65.722717
533.539612	65.731029
533.698303	65.739617
533.856995	65.750382
534.015686	65.760166
534.174377	65.772912
534.333008	65.786585
534.491699	65.803897
534.650330	65.823684
534.808960	65.844890
534.967651	65.870722
535.126221	65.897332
535.284851	65.923122
535.443481	65.948153
535.602112	65.971351
535.760681	65.995167
535.919250	66.020980
536.077881	66.047488
536.236450	66.075263
536.395020	66.100191
536.553528	66.127029
536.712097	66.157624
536.870667	66.189154
537.029175	66.217102
537.187683	66.243802
537.346191	66.268333
537.504700	66.289732
537.663208	66.306779
537.821716	66.321723
537.980225	66.338554
538.138672	66.352533
538.297180	66.365957
538.455627	66.376933
538.614075	66.383960
538.772522	66.393067
538.930969	66.399785
539.089417	66.401982
539.247803	66.404548
539.406250	66.406697
539.564636	66.408481
539.723083	66.410060
539.881470	66.413390
540.039856	66.415228
540.198242	66.415523
540.356567	66.417553
540.514954	66.419180
540.673279	66.418838
540.831665	66.417729
540.989990	66.414027
541.148315	66.410476
541.306641	66.406610
541.464966	66.401901
541.623291	66.399636
541.781555	66.399421
541.939880	66.399466
542.098145	66.401140
542.256409	66.403168
542.414673	66.402870
542.572937	66.401002
542.731201	66.399321
542.889465	66.400112
543.047668	66.395235
543.205933	66.389437
543.364136	66.384229
543.522339	66.378334
543.680542	66.372483
543.838745	66.367123
543.996948	66.365043
544.155090	66.364317
544.313293	66.361117
544.471436	66.359173
544.629639	66.359126
544.787781	66.358853
544.945923	66.359745
545.104065	66.361620
545.262146	66.365431
545.420288	66.371277
545.578369	66.378297
545.736511	66.387755
545.894592	66.399679
546.052673	66.408141
546.210754	66.419582
546.368835	66.431496
546.526917	66.446871
546.684937	66.464468
546.843018	66.480782
547.001038	66.500413
547.159058	66.518424
547.317078	66.536442
547.475098	66.554341
547.633118	66.569876
547.791138	66.580218
547.949097	66.589197
548.107117	66.597374
548.265076	66.604913
548.423035	66.607048
548.580994	66.605998
548.738953	66.605314
548.896912	66.602578
549.054810	66.599310
549.212769	66.588930
549.370667	66.577509
549.528625	66.562346
549.686523	66.547883
549.844421	66.532011
550.002319	66.515552
550.160156	66.498930
550.318054	66.480192
550.475891	66.463544
550.633789	66.452204
550.791626	66.445828
550.949463	66.443009
551.107300	66.442287
551.265137	66.443528
551.422974	66.443298
551.580750	66.448145
551.738586	66.458773
551.896362	66.471366
552.054138	66.484244
552.211914	66.498683
552.369690	66.520056
552.527466	66.538174
552.685242	66.564415
552.842957	66.587914
553.000671	66.608178
553.158447	66.632887
553.316162	66.654553
553.473877	66.677442
553.631592	66.702415
553.789307	66.722512
553.946960	66.739972
554.104675	66.757822
554.262329	66.771384
554.419983	66.779237
554.577637	66.788278
554.735291	66.795777
554.892944	66.803324
555.050598	66.805971
555.208252	66.808872
555.365845	66.807519
555.523438	66.810055
555.681030	66.815471
555.838684	66.821340
555.996216	66.825139
556.153809	66.835070
556.311401	66.843131
556.468994	66.850870
556.626526	66.859130
556.784058	66.864129
556.941589	66.873022
557.099121	66.879228
557.256653	66.885494
557.414185	66.890191
557.571716	66.897955
557.729187	66.910165
557.886719	66.921131
558.044189	66.927462
558.201660	66.935044
558.359131	66.942032
558.516602	66.948133
558.674011	66.947420
558.831482	66.948363
558.988892	66.942579
559.146362	66.933572
559.303772	66.922359
559.461182	66.908972
559.618591	66.898632
559.776001	66.889177
559.933350	66.876995
560.090759	66.863501
560.248108	66.850978
560.405518	66.835781
560.562866	66.823757
560.720215	66.816235
560.877563	66.810729
561.034851	66.811597
561.192200	66.816132
561.349548	66.822088
561.506836	66.831278
561.664124	66.848114
561.821411	66.868130
561.978699	66.894495
562.135986	66.925443
562.293274	66.963115
562.450500	66.997629
562.607788	67.035936
562.765015	67.075929
562.922241	67.121623
563.079468	67.172754
563.236694	67.224526
563.393921	67.281517
563.551147	67.344742
563.708313	67.414754
563.865540	67.485683
564.022705	67.550294
564.179871	67.611862
564.337036	67.668046
564.494202	67.722365
564.651367	67.771065
564.808472	67.813628
564.965637	67.858033
565.122742	67.895487
565.279846	67.930722
565.436951	67.966965
565.594055	68.005375
565.751160	68.037612
565.908264	68.064320
566.065308	68.082558
566.222412	68.091803
566.379456	68.096384
566.536499	68.094098
566.693542	68.088060
566.850586	68.078929
567.007629	68.068526
567.164673	68.054086
567.321655	68.036914
567.478699	68.019948
567.635681	68.009602
567.792664	68.002781
567.949646	67.993629
568.106628	67.985888
568.263611	67.974644
568.420532	67.961929
568.577515	67.943756
568.734436	67.924793
568.891357	67.910655
569.048279	67.899982
569.205200	67.892388
569.362122	67.898294
569.518982	67.905108
569.675903	67.913680
569.832764	67.919394
569.989685	67.922640
570.146545	67.921315
570.303406	67.920132
570.460266	67.918043
570.617065	67.923015
570.773926	67.921191
570.930786	67.922419
571.087585	67.926236
571.244385	67.925871
571.401184	67.924955
571.557983	67.924467
571.714783	67.925258
571.871582	67.924305
572.028320	67.924146
572.185120	67.917897
572.341858	67.909801
572.498596	67.901890
572.655334	67.892476
572.812073	67.881046
572.968811	67.872695
573.125488	67.866382
573.282227	67.866192
573.438904	67.869583
573.595581	67.874438
573.752258	67.877902
573.908936	67.881382
574.065613	67.881656
574.222290	67.889036
574.378906	67.895120
574.535583	67.905305
574.692200	67.916568
574.848816	67.933836
575.005432	67.957617
575.162048	67.980926
575.318665	68.009264
575.475281	68.039684
575.631836	68.056650
575.788452	68.076213
575.945007	68.099665
576.101562	68.124585
576.258118	68.148343
576.414673	68.167005
576.571167	68.187983
576.727722	68.207965
576.884216	68.222520
577.040771	68.237598
577.197266	68.250696
577.353760	68.255969
577.510254	68.259283
577.666748	68.263288
577.823181	68.263702
577.979675	68.256171
578.136108	68.241182
578.292542	68.220149
578.449036	68.198631
578.605469	68.175164
578.761841	68.151507
578.918274	68.129388
579.074707	68.106342
579.231079	68.082548
579.387451	68.057157
579.543884	68.029653
579.700256	68.001380
579.856628	67.975264
580.012939	67.951310
580.169312	67.932296
580.325684	67.917606
580.481995	67.903638
580.638306	67.895661
580.794617	67.888145
580.950928	67.883958
581.107239	67.883031
581.263550	67.883951
581.419800	67.888659
581.576111	67.894470
581.732361	67.900354
581.888611	67.912950
582.044861	67.925162
582.201111	67.935607
582.357361	67.944804
582.513611	67.955723
582.669800	67.967028
582.826050	67.975438
582.982239	67.979994
583.138428	67.984108
583.294617	67.983342
583.450806	67.980951
583.606995	67.981236
583.763123	67.976623
583.919312	67.969671
584.075439	67.962437
584.231567	67.957919
584.387695	67.955691
584.543823	67.954378
584.699951	67.954938
584.856018	67.957449
585.012146	67.960236
585.168213	67.960319
585.324341	67.963846
585.480408	67.966199
585.636475	67.969221
585.792480	67.975845
585.948547	67.985754
586.104614	68.000735
586.260620	68.019199
586.416626	68.042177
586.572693	68.066972
586.728699	68.090905
586.884705	68.117120
587.040649	68.145167
587.196655	68.172937
587.352600	68.197770
587.508606	68.220956
587.664551	68.244890
587.820496	68.266281
587.976440	68.284213
588.132385	68.300663
588.288330	68.320011
588.444214	68.337397
588.600159	68.353574
588.756042	68.364613
588.911926	68.373925
589.067810	68.378523
589.223694	68.379918
589.379578	68.380056
589.535400	68.379048
589.691284	68.377601
589.847107	68.374917
590.002930	68.376677
590.158752	68.376796
590.314575	68.378900
590.470398	68.383375
590.626221	68.388071
590.781982	68.395596
590.937805	68.403094
591.093567	68.414178
591.249329	68.426456
591.405090	68.441537
591.560852	68.455460
591.716614	68.473113
591.872375	68.499035
592.028076	68.529350
592.183777	68.564319
592.339539	68.601393
592.495239	68.639478
592.650940	68.674528
592.806580	68.702167
592.962280	68.730558
593.117920	68.752029
593.273621	68.769775
593.429260	68.788068
593.584900	68.801840
593.740540	68.812710
593.896179	68.820636
594.051819	68.822721
594.207397	68.823136
594.363037	68.822212
594.518616	68.814799
594.674194	68.809965
594.829773	68.801970
594.985352	68.785438
595.140930	68.764414
595.296509	68.743333
595.452026	68.724299
595.607605	68.703241
595.763123	68.686990
595.918640	68.676618
596.074158	68.663767
596.229675	68.654440
596.385132	68.651280
596.540649	68.648723
596.696106	68.648523
596.851624	68.655301
597.007080	68.662653
597.162537	68.677513
597.317993	68.694127
597.473389	68.712730
597.628845	68.733765
597.784241	68.755599
597.939697	68.780267
598.095093	68.809053
598.250488	68.837821
598.405884	68.862730
598.561279	68.882845
598.716614	68.900489
598.872009	68.913820
599.027344	68.926448
599.182739	68.937640
599.338074	68.949233
599.493408	68.958549
599.648682	68.964464
599.804016	68.970681
599.959351	68.973766
600.114624	68.973973
600.269958	68.973762
600.425232	68.971860
600.580505	68.968029
600.735779	68.963591
600.890991	68.954651
601.046265	68.945636
601.201477	68.941009
601.356750	68.936082
601.511963	68.933201
601.667175	68.930407
601.822388	68.931754
601.977600	68.929611
602.132812	68.924648
602.287964	68.926506
602.443115	68.925151
602.598328	68.922480
602.753479	68.924326
602.908630	68.927782
603.063782	68.931929
603.218872	68.937592
603.374023	68.942813
603.529114	68.949352
603.684265	68.957026
603.839355	68.963656
603.994446	68.971787
604.149536	68.980763
604.304626	68.983927
604.459656	68.982634
604.614746	68.978018
604.769775	68.975755
604.924805	68.971102
605.079834	68.970112
605.234863	68.971325
605.389893	68.970823
605.544922	68.973148
605.699890	68.978972
605.854919	68.980212
606.009888	68.980761
606.164856	68.983105
606.319824	68.980347
606.474792	68.977797
606.629761	68.975591
606.784668	68.974643
606.939636	68.977671
607.094543	68.983607
607.249451	68.986167
607.404358	68.984327
607.559265	68.990109
607.714172	68.999798
607.869080	69.011412
608.023926	69.021624
608.178772	69.035185
608.333679	69.047279
608.488525	69.056374
608.643372	69.066194
608.798218	69.080280
608.953003	69.096316
609.107849	69.113404
609.262634	69.128552
609.417419	69.152061
609.572266	69.172948
609.726990	69.192054
609.881775	69.209844
610.036560	69.227309
610.191345	69.244177
610.346069	69.262795
610.500793	69.282901
610.655579	69.304169
610.810303	69.323686
610.964966	69.335193
611.119690	69.345895
611.274414	69.354482
611.429077	69.366604
611.583801	69.380236
611.738464	69.392896
611.893127	69.400810
612.047791	69.406777
612.202454	69.411154
612.357056	69.412309
612.511719	69.413543
612.666321	69.412582
612.820923	69.410289
612.975586	69.405355
613.130188	69.399241
613.284729	69.389138
613.439331	69.378895
613.593933	69.374885
613.748474	69.367203
613.903015	69.358131
614.057556	69.350838
614.212097	69.345736
614.366638	69.338219
614.521179	69.331491
614.675720	69.321360
614.830200	69.310427
614.984680	69.299406
615.139221	69.289791
615.293701	69.280459
615.448181	69.276457
615.602600	69.268361
615.757080	69.267135
615.911499	69.263909
616.065979	69.261015
616.220398	69.259262
616.374817	69.257490
616.529236	69.252443
616.683655	69.245415
616.838074	69.236095
616.992432	69.232742
617.146851	69.234545
617.301208	69.241870
617.455566	69.253688
617.609924	69.266830
617.764282	69.286506
617.918579	69.310816
618.072937	69.334612
618.227234	69.360853
618.381592	69.387913
618.535889	69.410098
618.690186	69.433176
618.844482	69.454591
618.998718	69.483113
619.153015	69.516700
619.307312	69.545827
619.461548	69.579521
619.615784	69.615395
619.770020	69.648868
619.924255	69.682056
620.078491	69.710771
620.232666	69.737015
620.386902	69.757612
620.541077	69.771291
620.695251	69.778949
620.849487	69.783725
621.003601	69.788725
621.157776	69.792209
621.311951	69.791501
621.466064	69.788383
621.620239	69.785013
621.774353	69.778167
621.928467	69.766462
622.082581	69.752324
622.236694	69.736666
622.390808	69.723291
622.544861	69.709308
622.698975	69.696735
622.853027	69.685857
623.007080	69.679146
623.161133	69.675284
623.315186	69.677291
623.469238	69.685888
623.623230	69.700203
623.777283	69.718928
623.931274	69.737590
624.085266	69.753408
624.239258	69.770104
624.393250	69.789974
624.547241	69.807589
624.701233	69.828173
624.855164	69.853298
625.009094	69.886099
625.163086	69.917051
625.317017	69.943602
625.470947	69.969534
625.624817	69.992178
625.778748	70.015831
625.932617	70.043704
626.086548	70.068007
626.240417	70.088126
626.394287	70.101893
626.548157	70.107302
626.702026	70.111845
626.855896	70.114251
627.009705	70.117951
627.163574	70.118492
627.317383	70.120999
627.471191	70.124353
627.625000	70.128775
627.778809	70.131016
627.932556	70.133775
628.086365	70.134092
628.240112	70.135280
628.393921	70.138869
628.547668	70.144516
628.701416	70.151369
628.855164	70.159388
629.008850	70.164141
629.162598	70.170750
629.316284	70.179759
629.470032	70.191186
629.623718	70.204050
629.777405	70.215185
629.931091	70.225568
630.084778	70.234724
630.238403	70.242661
630.392090	70.246131
630.545715	70.243283
630.699341	70.241813
630.852966	70.239872
631.006592	70.235534
631.160217	70.225417
631.313843	70.211797
631.467407	70.197392
631.620972	70.181161
631.774597	70.165823
631.928162	70.143346
632.081726	70.115810
632.235229	70.086505
632.388794	70.059273
632.542358	70.032146
632.695862	70.006372
632.849365	69.980564
633.002869	69.955619
633.156372	69.930801
633.309875	69.907108
633.463379	69.884049
633.616821	69.866647
633.770325	69.851096
633.923767	69.839509
634.077209	69.826327
634.230652	69.816030
634.384094	69.811364
634.537537	69.808914
634.690918	69.806567
634.844299	69.805386
634.997742	69.808276
635.151123	69.821527
635.304504	69.839291
635.457886	69.858108
635.611206	69.876947
635.764587	69.895718
635.917908	69.916091
636.071289	69.937565
636.224609	69.958830
636.377930	69.981673
636.531250	70.007184
636.684570	70.033711
636.837830	70.060167
636.991150	70.088227
637.144409	70.118573
637.297668	70.146673
637.450928	70.172026
637.604187	70.194918
637.757446	70.218405
637.910645	70.235056
638.063904	70.253177
638.217102	70.265551
638.370300	70.271626
638.523499	70.271852
638.676697	70.267009
638.829895	70.256661
638.983093	70.243883
639.136230	70.232184
639.289429	70.217617
639.442566	70.207002
639.595703	70.193782
639.748840	70.174174
639.901978	70.152635
640.055054	70.125414
640.208191	70.100471
640.361267	70.077372
640.514343	70.055663
640.667419	70.037953
640.820496	70.024205
640.973572	70.017031
641.126648	70.014804
641.279663	70.013708
641.432739	70.021455
641.585754	70.034792
641.738770	70.053215
641.891785	70.079895
642.044800	70.112007
642.197754	70.143459
642.350769	70.182171
642.503723	70.218674
642.656738	70.260692
642.809692	70.308471
642.962646	70.356885
643.115540	70.406347
643.268494	70.450014
643.421448	70.497044
643.574341	70.542016
643.727234	70.581709
643.880127	70.617216
644.033020	70.650634
644.185913	70.675386
644.338806	70.695435
644.491699	70.712266
644.644531	70.724967
644.797363	70.733196
644.950195	70.739554
645.103027	70.740558
645.255859	70.735538
645.408691	70.722229
645.561462	70.703043
645.714294	70.680867
645.867065	70.655457
646.019836	70.629154
646.172607	70.601205
646.325378	70.573526
646.478149	70.546085
646.630859	70.519649
646.783630	70.496660
646.936340	70.474836
647.089050	70.457510
647.241760	70.440936
647.394470	70.428689
647.547180	70.415573
647.699829	70.403900
647.852539	70.397673
648.005188	70.390575
648.157837	70.384363
648.310486	70.385284
648.463135	70.388629
648.615784	70.396076
648.768433	70.405141
648.921021	70.414468
649.073608	70.428219
649.226257	70.443406
649.378845	70.461075
649.531372	70.474781
649.683960	70.489394
649.836548	70.503060
649.989075	70.512178
650.141663	70.518277
650.294189	70.527245
650.446716	70.533700
650.599243	70.536098
650.751709	70.535410
650.904236	70.534292
651.056702	70.532102
651.209229	70.531824
651.361694	70.525778
651.514160	70.520798
651.666626	70.515941
651.819092	70.507558
651.971497	70.497626
652.123962	70.484470
652.276367	70.473812
652.428772	70.467047
652.581177	70.461268
652.733582	70.455219
652.885986	70.449578
653.038330	70.448475
653.190735	70.446274
653.343079	70.443495
653.495422	70.443247
653.647827	70.444257
653.800110	70.446430
653.952454	70.444386
654.104797	70.445028
654.257080	70.444930
654.409424	70.449614
654.561707	70.452053
654.713989	70.455145
654.866272	70.456517
655.018555	70.457641
655.170776	70.455580
655.323059	70.448731
655.475281	70.439394
655.627502	70.429694
655.779724	70.417043
655.931946	70.401438
656.084167	70.384717
656.236328	70.368297
656.388550	70.350276
656.540710	70.332084
656.692871	70.315776
656.845093	70.302136
656.997192	70.290999
657.149353	70.277182
657.301514	70.261452
657.453613	70.244813
657.605774	70.234434
657.757874	70.225074
657.909973	70.220975
658.062073	70.222477
658.214172	70.228639
658.366211	70.239036
658.518311	70.247886
658.670349	70.260010
658.822388	70.277252
658.974426	70.300169
659.126465	70.322251
659.278503	70.344332
659.430481	70.370058
659.582520	70.395957
659.734497	70.423729
659.886475	70.451406
660.038452	70.479906
660.190430	70.508934
660.342407	70.537863
660.494385	70.562432
660.646301	70.582369
660.798279	70.599750
660.950195	70.613676
661.102112	70.625494
661.254028	70.634273
661.405884	70.643668
661.557800	70.651341
661.709717	70.656469
661.861572	70.656388
662.013428	70.653715
662.165283	70.651305
662.317139	70.648244
662.468994	70.641188
662.620789	70.630453
662.772644	70.618599
662.924438	70.605545
663.076233	70.589090
663.228027	70.573265
663.379822	70.560067
663.531616	70.549392
663.683411	70.539550
663.835144	70.531253
663.986877	70.524307
664.138611	70.517462
664.290344	70.515102
664.442078	70.512016
664.593811	70.515218
664.745544	70.519620
664.897217	70.529243
665.048889	70.537150
665.200623	70.548746
665.352295	70.562622
665.503967	70.578807
665.655579	70.598633
665.807251	70.617530
665.958862	70.637558
666.110535	70.659659
666.262146	70.680296
666.413757	70.702385
666.565369	70.726006
666.716919	70.749001
666.868530	70.771427
667.020081	70.793511
667.171692	70.816187
667.323242	70.836318
667.474792	70.854664
667.626343	70.869148
667.777832	70.880360
667.929382	70.888928
668.080872	70.896175
668.232422	70.899735
668.383911	70.898512
668.535400	70.897232
668.686890	70.893499
668.838318	70.888358
668.989807	70.880812
669.141235	70.871833
669.292725	70.862150
669.444153	70.844532
669.595581	70.829016
669.747009	70.812434
669.898376	70.794384
670.049805	70.775422
670.201172	70.755005
670.352539	70.732757
670.503967	70.712255
670.655273	70.692828
670.806641	70.675428
670.958008	70.656870
671.109375	70.642152
671.260681	70.629265
671.411987	70.621055
671.563293	70.614103
671.714600	70.611773
671.865906	70.608914
672.017212	70.609733
672.168457	70.614111
672.319763	70.621715
672.471008	70.634133
672.622253	70.644550
672.773499	70.658862
672.924744	70.677167
673.075928	70.700684
673.227173	70.725811
673.378357	70.753738
673.529541	70.781355
673.680786	70.809158
673.831909	70.838283
673.983093	70.867030
674.134277	70.894964
674.285400	70.921629
674.436584	70.948303
674.587708	70.970838
674.738831	70.991182
674.889954	71.009680
675.041077	71.023686
675.192139	71.033379
675.343262	71.038337
675.494324	71.045742
675.645386	71.050267
675.796448	71.050355
675.947510	71.048940
676.098572	71.044023
676.249634	71.037502
676.400635	71.031435
676.551636	71.021870
676.702698	71.009050
676.853699	70.996665
677.004639	70.988461
677.155640	70.980368
677.306641	70.970207
677.457581	70.960943
677.608521	70.951375
677.759521	70.939366
677.910461	70.935688
678.061401	70.934117
678.212280	70.935452
678.363220	70.942584
678.514099	70.950724
678.664978	70.963858
678.815918	70.982567
678.966797	71.001551
679.117615	71.020796
679.268494	71.039456
679.419373	71.057766
679.570190	71.076105
679.721008	71.096732
679.871826	71.115813
680.022644	71.133332
680.173462	71.148277
680.324280	71.165869
680.475037	71.180086
680.625854	71.197686
680.776611	71.213809
680.927368	71.224656
681.078125	71.234505
681.228882	71.244509
681.379639	71.253424
681.530334	71.259928
681.681030	71.263684
681.831787	71.265933
681.982483	71.264030
682.133179	71.261277
682.283813	71.256527
682.434509	71.247391
682.585205	71.242691
682.735840	71.238735
682.886475	71.233288
683.037109	71.224289
683.187744	71.215945
683.338379	71.206996
683.488953	71.196145
683.639587	71.186371
683.790161	71.180383
683.940735	71.174808
684.091309	71.170423
684.241882	71.166583
684.392456	71.162485
684.543030	71.159035
684.693542	71.154936
684.844055	71.146552
684.994568	71.141243
685.145081	71.136844
685.295593	71.135501
685.446106	71.133943
685.596619	71.131531
685.747070	71.127368
685.897522	71.124360
686.047974	71.122483
686.198425	71.124487
686.348877	71.126311
686.499329	71.131623
686.649719	71.134345
686.800171	71.136139
686.950562	71.136663
687.100952	71.137979
687.251343	71.137410
687.401733	71.138076
687.552124	71.134325
687.702454	71.130240
687.852783	71.127542
688.003174	71.122928
688.153503	71.117390
688.303833	71.111814
688.454102	71.108772
688.604431	71.102954
688.754700	71.096540
688.905029	71.092117
689.055298	71.088427
689.205566	71.081759
689.355835	71.076568
689.506104	71.070719
689.656311	71.067480
689.806580	71.064302
689.956787	71.065096
690.106995	71.068739
690.257202	71.075066
690.407410	71.081611
690.557617	71.091411
690.707764	71.102524
690.857971	71.115884
691.008118	71.132842
691.158264	71.150640
691.308411	71.168159
691.458557	71.185275
691.608704	71.203979
691.758789	71.223813
691.908936	71.241599
692.059021	71.260389
692.209106	71.278288
692.359192	71.297420
692.509277	71.315283
692.659302	71.330141
692.809387	71.344899
692.959412	71.360475
693.109436	71.371143
693.259460	71.380046
693.409485	71.382716
693.559509	71.387168
693.709534	71.389576
693.859497	71.389323
694.009521	71.387425
694.159485	71.382922
694.309448	71.377209
694.459412	71.370768
694.609314	71.365287
694.759277	71.359774
694.909180	71.352965
695.059143	71.346746
695.209045	71.341822
695.358948	71.334668
695.508850	71.329719
695.658691	71.326393
695.808594	71.324090
695.958435	71.318576
696.108337	71.315470
696.258179	71.314551
696.408020	71.315438
696.557800	71.314850
696.707642	71.318924
696.857483	71.324252
697.007263	71.329303
697.157043	71.334493
697.306824	71.339838
697.456604	71.349230
697.606384	71.357732
697.756165	71.368422
697.905884	71.381520
698.055603	71.395834
698.205383	71.409976
698.355103	71.421603
698.504822	71.432827
698.654480	71.441518
698.804199	71.452287
698.953857	71.461513
699.103577	71.469588
699.253235	71.473114
699.402893	71.479467
699.552551	71.483979
699.702148	71.485965
699.851807	71.485212
700.001404	71.484673
700.151062	71.485547
700.300659	71.485543
700.450256	71.482955
700.599792	71.479679
700.749390	71.473043
700.898987	71.465367
701.048523	71.452415
701.198059	71.436932
701.347595	71.423442
701.497131	71.412660
701.646667	71.403820
701.796204	71.395009
701.945679	71.388425
702.095154	71.379890
702.244690	71.373898
702.394165	71.367000
702.543640	71.363083
702.693054	71.358361
702.842529	71.356718
702.991943	71.355678
703.141418	71.356944
703.290833	71.360286
703.440247	71.360726
703.589661	71.364944
703.739014	71.369977
703.888428	71.374968
704.037781	71.381300
704.187134	71.389417
704.336487	71.398431
704.485840	71.406876
704.635193	71.417525
704.784546	71.422542
704.933838	71.426877
705.083191	71.431819
705.232483	71.436880
705.381775	71.441262
705.531067	71.443197
705.680359	71.446394
705.829590	71.449984
705.978882	71.453413
706.128113	71.454006
706.277344	71.453964
706.426575	71.455691
706.575806	71.452568
706.725037	71.449372
706.874207	71.444316
707.023438	71.441505
707.172607	71.440346
707.321777	71.439026
707.470947	71.434924
707.620117	71.428513
707.769287	71.422098
707.918396	71.414016
708.067505	71.409570
708.216675	71.404228
708.365784	71.399789
708.514893	71.394349
708.663940	71.387930
708.813049	71.381254
708.962097	71.372542
709.111206	71.361540
709.260254	71.349488
709.409302	71.343158
709.558350	71.339118
709.707397	71.335866
709.856384	71.335252
710.005432	71.336273
710.154419	71.339111
710.303406	71.341345
710.452393	71.343887
710.601379	71.347558
710.750305	71.354925
710.899292	71.364378
711.048218	71.374607
711.197205	71.388171
711.346130	71.404087
711.495056	71.422578
711.643921	71.441753
711.792847	71.460944
711.941711	71.479733
712.090637	71.503240
712.239502	71.525857
712.388367	71.540744
712.537231	71.553615
712.686096	71.567316
712.834900	71.580546
712.983765	71.592234
713.132568	71.600434
713.281372	71.608989
713.430176	71.615849
713.578979	71.617989
713.727722	71.619920
713.876526	71.624171
714.025269	71.624160
714.174072	71.620880
714.322815	71.614878
714.471558	71.609809
714.620239	71.603645
714.768982	71.595489
714.917664	71.590063
715.066406	71.586281
715.215088	71.587656
715.363770	71.591370
715.512451	71.596904
715.661072	71.603095
715.809753	71.608211
715.958374	71.611417
716.107056	71.617026
716.255676	71.623112
716.404297	71.630049
716.552917	71.642282
716.701477	71.655467
716.850098	71.664749
716.998657	71.673990
717.147217	71.681041
717.295776	71.685058
717.444336	71.687818
717.592896	71.690290
717.741455	71.693504
717.889954	71.695588
718.038513	71.690002
718.187012	71.678621
718.335510	71.668050
718.484009	71.656589
718.632446	71.641932
718.780945	71.627560
718.929382	71.614090
719.077881	71.599454
719.226318	71.583556
719.374756	71.568819
719.523132	71.555196
719.671570	71.541057
719.820007	71.528041
719.968384	71.518335
720.116760	71.512870
720.265137	71.510564
720.413513	71.508758
720.561890	71.507077
720.710205	71.506765
720.858582	71.508726
721.006897	71.516946
721.155212	71.526224
721.303528	71.535462
721.451843	71.547902
721.600159	71.560690
721.748413	71.576840
721.896729	71.594783
722.044983	71.611232
722.193237	71.628407
722.341492	71.646678
722.489746	71.662364
722.637939	71.674916
722.786194	71.688141
722.934387	71.698285
723.082581	71.707836
723.230774	71.718109
723.378967	71.728384
723.527161	71.739289
723.675354	71.749983
723.823486	71.759158
723.971619	71.766217
724.119751	71.775407
724.267883	71.783208
724.416016	71.790124
724.564148	71.799213
724.712219	71.809820
724.860352	71.817904
725.008423	71.827207
725.156494	71.838013
725.304565	71.845370
725.452637	71.852027
725.600647	71.861043
725.748718	71.870159
725.896729	71.881620
726.044739	71.890285
726.192749	71.900015
726.340759	71.905120
726.488770	71.910335
726.636719	71.915843
726.784729	71.920675
726.932678	71.924589
727.080627	71.928971
727.228577	71.934303
727.376526	71.937823
727.524414	71.939834
727.672363	71.936924
727.820251	71.933102
727.968140	71.926970
728.116028	71.920426
728.263916	71.916157
728.411804	71.911287
728.559631	71.905702
728.707520	71.898832
728.855347	71.893062
729.003174	71.890641
729.151001	71.886955
729.298828	71.887081
729.446594	71.886999
729.594421	71.885915
729.742188	71.884674
729.890015	71.884185
730.037781	71.882240
730.185486	71.882697
730.333252	71.883554
730.481018	71.886157
730.628723	71.888285
730.776428	71.893255
730.924194	71.899911
731.071899	71.904804
731.219543	71.910189
731.367249	71.919269
731.514954	71.928123
731.662598	71.938143
731.810242	71.944292
731.957886	71.949213
732.105530	71.951402
732.253174	71.954741
732.400818	71.959073
732.548401	71.964272
732.695984	71.968389
732.843567	71.972833
732.991150	71.976156
733.138733	71.977151
733.286316	71.975031
733.433838	71.971374
733.581421	71.968106
733.728943	71.964742
733.876465	71.963057
734.023987	71.960961
734.171509	71.957597
734.318970	71.952974
734.466492	71.951152
734.613953	71.950362
734.761414	71.951261
734.908875	71.952130
735.056335	71.956072
735.203796	71.959461
735.351196	71.964430
735.498657	71.969485
735.646057	71.975298
735.793457	71.981466
735.940857	71.991589
736.088257	72.002284
736.235657	72.018562
736.382996	72.034208
736.530334	72.049767
736.677734	72.065153
736.825073	72.082061
736.972351	72.100377
737.119690	72.120553
737.267029	72.138534
737.414307	72.155738
737.561584	72.169795
737.708862	72.184791
737.856140	72.198574
738.003418	72.211238
738.150696	72.223679
738.297913	72.231672
738.445190	72.238085
738.592407	72.242863
738.739624	72.246152
738.886841	72.246196
739.033997	72.244619
739.181213	72.239948
739.328369	72.233748
739.475586	72.227851
739.622742	72.221888
739.769897	72.211704
739.916992	72.202155
740.064148	72.190731
740.211304	72.179842
740.358398	72.166440
740.505493	72.154536
740.652588	72.141853
740.799683	72.129472
740.946777	72.117226
741.093811	72.104945
741.240906	72.094247
741.387939	72.084806
741.534973	72.077591
741.682007	72.073479
741.829041	72.069584
741.976013	72.068739
742.123047	72.067405
742.270020	72.070132
742.416992	72.075250
742.563965	72.082030
742.710938	72.088609
742.857910	72.093997
743.004883	72.101049
743.151794	72.108577
743.298706	72.117361
743.445618	72.128443
743.592529	72.138579
743.739441	72.150317
743.886353	72.162139
744.033203	72.174883
744.180115	72.188315
744.326965	72.201322
744.473816	72.215801
744.620667	72.226971
744.767456	72.237777
744.914307	72.246900
745.061096	72.254586
745.207947	72.261372
745.354736	72.266614
745.501526	72.267919
745.648254	72.270727
745.795044	72.271946
745.941833	72.272422
746.088562	72.271964
746.235291	72.270840
746.382019	72.265833
746.528748	72.259882
746.675476	72.252310
746.822144	72.244224
746.968872	72.235463
747.115540	72.226365
747.262207	72.216560
747.408875	72.204719
747.555542	72.193024
747.702148	72.182997
747.848816	72.172251
747.995422	72.163534
748.142029	72.153953
748.288635	72.144392
748.435242	72.135616
748.581848	72.127615
748.728394	72.122830
748.875000	72.117421
749.021545	72.113820
749.168091	72.112390
749.314636	72.112599
749.461182	72.115809
749.607666	72.119047
749.754211	72.124412
749.900696	72.129043
750.047180	72.135323
750.193665	72.142363
750.340149	72.151432
750.486633	72.161134
750.633057	72.168888
750.779541	72.177094
750.925964	72.186668
751.072388	72.195943
751.218811	72.204910
751.365234	72.216831
751.511597	72.226667
751.658020	72.235664
751.804382	72.245731
751.950745	72.254691
752.097107	72.262751
752.243469	72.272352
752.389832	72.282004
752.536133	72.291644
752.682495	72.298984
752.828796	72.306871
752.975098	72.312646
753.121399	72.319413
753.267639	72.326486
753.413940	72.333424
753.560181	72.340955
753.706482	72.348047
753.852722	72.353437
753.998962	72.359036
754.145203	72.364085
754.291382	72.366679
754.437622	72.370086
754.583801	72.372889
754.729980	72.374716
754.876160	72.376623
755.022339	72.376107
755.168518	72.374052
755.314697	72.370080
755.460815	72.367990
755.606934	72.366383
755.753052	72.364748
755.899170	72.363199
756.045288	72.361360
756.191406	72.356633
756.337463	72.353137
756.483521	72.353777
756.629639	72.355416
756.775696	72.360107
756.921692	72.367185
757.067749	72.376868
757.213806	72.387539
757.359802	72.401969
757.505798	72.418388
757.651794	72.435014
757.797791	72.452324
757.943787	72.470316
758.089783	72.489002
758.235718	72.507059
758.381653	72.524615
758.527588	72.542763
758.673523	72.560787
758.819458	72.580813
758.965393	72.599009
759.111267	72.617874
759.257202	72.636081
759.403076	72.650502
759.548950	72.663356
759.694824	72.671984
759.840698	72.676050
759.986511	72.676027
760.132385	72.673378
760.278198	72.666826
760.424011	72.656390
760.569824	72.643269
760.715637	72.628615
760.861389	72.615154
761.007202	72.600164
761.152954	72.586499
761.298706	72.572164
761.444458	72.557629
761.590210	72.543501
761.735962	72.528861
761.881653	72.515489
762.027405	72.504099
762.173096	72.493054
762.318787	72.482645
762.464478	72.472933
762.610168	72.464009
762.755798	72.458057
762.901489	72.454866
763.047119	72.452911
763.192749	72.450390
763.338379	72.449045
763.484009	72.450870
763.629639	72.453227
763.775208	72.457632
763.920837	72.463071
764.066406	72.468561
764.211975	72.473926
764.357544	72.480505
764.503052	72.485429
764.648621	72.488641
764.794128	72.493151
764.939697	72.494292
765.085205	72.494161
765.230713	72.490728
765.376221	72.487211
765.521667	72.484108
765.667175	72.480117
765.812622	72.476219
765.958069	72.474380
766.103516	72.473716
766.248962	72.474305
766.394409	72.475558
766.539795	72.479332
766.685181	72.481306
766.830627	72.484552
766.976013	72.488094
767.121399	72.492033
767.266724	72.495174
767.412109	72.499364
767.557434	72.504638
767.702820	72.510738
767.848145	72.518631
767.993469	72.528148
768.138733	72.540133
768.284058	72.554393
768.429382	72.569814
768.574646	72.587541
768.719910	72.605716
768.865173	72.623118
769.010437	72.643129
769.155701	72.663773
769.300903	72.683364
769.446167	72.700814
769.591370	72.716835
769.736572	72.730024
769.881775	72.741803
770.026978	72.753462
770.172119	72.762778
770.317322	72.772659
770.462463	72.781178
770.607605	72.785471
770.752747	72.789132
770.897888	72.791460
771.042969	72.795488
771.188110	72.794890
771.333191	72.792676
771.478271	72.787750
771.623352	72.780619
771.768433	72.771236
771.913513	72.758347
772.058533	72.742085
772.203613	72.726343
772.348633	72.710112
772.493652	72.692897
772.638672	72.676117
772.783691	72.660742
772.928650	72.643545
773.073669	72.627973
773.218628	72.611587
773.363586	72.596504
773.508545	72.582688
773.653503	72.568240
773.798462	72.556465
773.943359	72.544064
774.088257	72.535868
774.233215	72.529859
774.378113	72.522894
774.522949	72.519115
774.667847	72.519098
774.812744	72.519138
774.957581	72.522051
775.102417	72.525664
775.247253	72.531630
775.392090	72.540899
775.536926	72.554234
775.681763	72.569092
775.826538	72.584263
775.971313	72.600665
776.116089	72.616566
776.260864	72.633488
776.405640	72.651561
776.550415	72.671119
776.695129	72.688748
776.839905	72.702993
776.984619	72.717788
777.129333	72.733418
777.274048	72.748507
777.418701	72.761207
777.563416	72.772074
777.708069	72.784354
777.852722	72.797213
777.997375	72.808908
778.142029	72.816662
778.286682	72.824329
778.431335	72.829636
778.575928	72.833652
778.720520	72.839917
778.865112	72.844972
779.009705	72.853637
779.154297	72.860936
779.298889	72.869499
779.443420	72.879368
779.588013	72.889793
779.732544	72.902024
779.877075	72.912371
780.021606	72.921046
780.166077	72.932413
780.310608	72.943330
780.455078	72.954546
780.599548	72.965512
780.744019	72.976040
780.888489	72.986684
781.032959	73.001125
781.177429	73.014033
781.321838	73.024213
781.466248	73.032103
781.610657	73.039028
781.755066	73.043528
781.899475	73.045598
782.043884	73.046779
782.188232	73.045311
782.332581	73.040346
782.476929	73.034489
782.621277	73.030082
782.765625	73.025291
782.909973	73.017609
783.054260	73.010257
783.198608	73.004030
783.342896	72.996513
783.487183	72.989040
783.631470	72.981205
783.775696	72.971951
783.919983	72.961663
784.064209	72.951758
784.208435	72.945719
784.352722	72.940038
784.496887	72.934499
784.641113	72.932190
784.785339	72.927169
784.929504	72.924026
785.073669	72.920785
785.217896	72.919734
785.362000	72.918442
785.506165	72.917574
785.650330	72.916908
785.794434	72.920512
785.938599	72.925323
786.082703	72.929426
786.226807	72.933864
786.370911	72.940389
786.514954	72.948763
786.659058	72.958801
786.803101	72.967326
786.947144	72.974996
787.091187	72.981805
787.235229	72.988720
787.379272	72.994633
787.523254	73.000287
787.667297	73.007312
787.811279	73.012345
787.955261	73.019004
788.099243	73.026199
788.243225	73.034843
788.387146	73.042426
788.531128	73.050134
788.675049	73.057099
788.818970	73.060987
788.962891	73.064566
789.106812	73.067468
789.250671	73.066598
789.394592	73.061593
789.538452	73.054708
789.682312	73.048366
789.826172	73.043557
789.970032	73.036528
790.113892	73.031497
790.257690	73.027875
790.401550	73.022993
790.545349	73.019387
790.689148	73.015546
790.832947	73.010223
790.976685	73.003365
791.120483	72.994745
791.264221	72.985409
791.408020	72.975610
791.551758	72.963257
791.695435	72.949803
791.839172	72.936942
791.982910	72.924955
792.126587	72.913746
792.270264	72.903838
792.414001	72.895020
792.557617	72.885913
792.701294	72.877376
792.844971	72.868226
792.988586	72.858040
793.132263	72.847504
793.275879	72.838879
793.419495	72.831000
793.563110	72.826089
793.706665	72.823483
793.850281	72.824166
793.993835	72.826022
794.137390	72.830331
794.280945	72.838176
794.424500	72.847094
794.568054	72.861318
794.711548	72.876074
794.855103	72.890896
794.998596	72.906386
795.142090	72.923314
795.285583	72.941500
795.429016	72.962598
795.572510	72.982810
795.715942	73.004526
795.859436	73.025023
796.002869	73.045630
796.146301	73.063984
796.289673	73.081682
796.433105	73.096062
796.576477	73.109469
796.719910	73.119957
796.863281	73.130554
797.006653	73.138487
797.149963	73.142109
797.293335	73.145064
797.436707	73.145242
797.580017	73.144405
797.723328	73.143765
797.866638	73.144534
798.009949	73.144181
798.153198	73.140554
798.296509	73.133987
798.439758	73.126542
798.583008	73.118644
798.726257	73.111120
798.869507	73.103651
799.012756	73.097646
799.156006	73.091052
799.299194	73.087844
799.442383	73.085376
799.585571	73.084106
799.728760	73.084363
799.871948	73.085044
800.015076	73.086789
800.158264	73.089853
800.301392	73.090030
800.444519	73.090723
800.587646	73.091470
800.730774	73.092431
800.873840	73.093832
801.016968	73.098538
801.160034	73.103376
801.303101	73.109151
801.446167	73.114347
801.589233	73.121542
801.732239	73.126412
801.875305	73.130514
802.018311	73.131179
802.161316	73.131326
802.304321	73.129188
802.447327	73.126731
802.590332	73.120501
802.733276	73.114280
802.876282	73.108368
803.019226	73.103018
803.162170	73.099422
803.305115	73.097236
803.447998	73.096953
803.590942	73.092918
803.733826	73.086841
803.876709	73.079035
804.019592	73.072554
804.162476	73.064703
804.305359	73.058446
804.448181	73.052129
804.591064	73.048125
804.733887	73.043663
804.876709	73.045389
805.019531	73.044472
805.162354	73.045297
805.305115	73.045467
805.447937	73.045434
805.590698	73.046676
805.733459	73.047324
805.876221	73.047217
806.018982	73.048482
806.161682	73.048398
806.304443	73.046992
806.447144	73.045963
806.589844	73.046513
806.732544	73.046873
806.875244	73.046537
807.017883	73.045870
807.160583	73.045805
807.303223	73.043400
807.445862	73.039533
807.588501	73.036619
807.731140	73.033370
807.873779	73.031594
808.016357	73.028228
808.158936	73.025148
808.301575	73.024329
808.444153	73.023871
808.586670	73.024834
808.729248	73.026357
808.871826	73.028408
809.014343	73.029580
809.156860	73.027661
809.299377	73.030191
809.441895	73.034013
809.584412	73.039233
809.726868	73.044996
809.869385	73.051881
810.011841	73.058121
810.154297	73.067437
810.296753	73.077305
810.439148	73.087467
810.581604	73.095799
810.723999	73.105527
810.866455	73.114774
811.008850	73.125127
811.151184	73.134976
811.293579	73.146009
811.435974	73.156690
811.578308	73.168872
811.720642	73.181142
811.863037	73.194326
812.005310	73.209991
812.147644	73.224266
812.289978	73.239872
812.432251	73.254230
812.574524	73.268560
812.716858	73.284044
812.859070	73.299222
813.001343	73.312055
813.143616	73.323774
813.285828	73.334142
813.428101	73.342419
813.570312	73.349676
813.712524	73.359130
813.854675	73.365369
813.996887	73.371074
814.139099	73.373140
814.281250	73.373582
814.423401	73.370691
814.565552	73.365838
814.707703	73.360712
814.849792	73.356891
814.991943	73.350010
815.134033	73.339737
815.276123	73.331090
815.418213	73.321271
815.560303	73.310891
815.702393	73.300407
815.844421	73.289174
815.986511	73.279647
816.128540	73.271255
816.270569	73.264811
816.412598	73.256222
816.554565	73.246861
816.696594	73.240557
816.838562	73.237459
816.980591	73.237043
817.122559	73.237246
817.264465	73.239092
817.406433	73.239138
817.548401	73.238822
817.690308	73.238580
817.832214	73.241821
817.974121	73.244948
818.116028	73.248199
818.257935	73.251281
818.399780	73.251335
818.541687	73.252157
818.683533	73.254633
818.825378	73.256474
818.967224	73.260020
819.109070	73.262911
819.250854	73.263342
819.392700	73.262421
819.534485	73.262194
819.676270	73.258979
819.818054	73.254544
819.959839	73.252447
820.101562	73.250851
820.243347	73.252258
820.385071	73.253076
820.526794	73.252139
820.668518	73.249141
820.810242	73.247064
820.951904	73.244716
821.093628	73.244534
821.235291	73.247219
821.376953	73.248246
821.518616	73.248470
821.660278	73.249256
821.801880	73.247824
821.943542	73.245181
822.085144	73.248967
822.226746	73.255378
822.368347	73.258163
822.509949	73.261880
822.651550	73.263280
822.793091	73.262875
822.934631	73.261001
823.076233	73.260691
823.217773	73.262140
823.359253	73.264809
823.500793	73.268475
823.642273	73.272550
823.783813	73.275039
823.925293	73.276333
824.066772	73.277901
824.208252	73.279414
824.349670	73.281052
824.491150	73.283295
824.632568	73.283093
824.773987	73.284209
824.915405	73.285911
825.056824	73.288392
825.198242	73.292790
825.339600	73.299852
825.481018	73.309679
825.622375	73.319444
825.763733	73.330427
825.905029	73.339879
826.046387	73.350071
826.187744	73.361807
826.329041	73.374440
826.470337	73.390330
826.611633	73.405996
826.752930	73.420043
826.894226	73.435138
827.035461	73.451662
827.176758	73.468119
827.317993	73.482002
827.459229	73.498910
827.600464	73.515312
827.741638	73.527881
827.882874	73.539194
828.024048	73.552825
828.165222	73.562692
828.306396	73.572644
828.447571	73.583504
828.588745	73.591751
828.729858	73.598438
828.871033	73.603191
829.012146	73.604851
829.153259	73.603113
829.294373	73.593428
829.435486	73.582845
829.576538	73.571959
829.717590	73.558441
829.858704	73.543190
829.999756	73.527464
830.140808	73.513567
830.281799	73.501939
830.422852	73.490820
830.563843	73.483018
830.704834	73.474149
830.845825	73.464904
830.986816	73.455347
831.127808	73.447094
831.268799	73.440203
831.409729	73.434812
831.550659	73.431112
831.691589	73.428298
831.832520	73.425478
831.973450	73.424139
832.114319	73.427423
832.255249	73.433153
832.396118	73.440891
832.536987	73.448782
832.677856	73.457840
832.818726	73.467736
832.959534	73.477914
833.100342	73.485859
833.241211	73.494701
833.382019	73.501344
833.522827	73.507775
833.663574	73.509419
833.804382	73.512394
833.945129	73.511412
834.085876	73.506944
834.226685	73.501856
834.367371	73.495767
834.508118	73.488307
834.648865	73.480865
834.789551	73.470391
834.930237	73.459940
835.070923	73.450683
835.211609	73.442340
835.352295	73.434298
835.492981	73.428288
835.633606	73.422869
835.774231	73.417982
835.914856	73.411806
836.055481	73.407134
836.196106	73.403240
836.336670	73.399554
836.477295	73.398392
836.617859	73.397149
836.758423	73.398504
836.898987	73.399828
837.039551	73.404009
837.180054	73.408951
837.320618	73.416694
837.461121	73.425837
837.601624	73.439051
837.742126	73.450395
837.882629	73.462079
838.023071	73.473876
838.163574	73.483601
838.304016	73.491014
838.444458	73.496246
838.584900	73.501676
838.725281	73.508439
838.865723	73.510599
839.006104	73.512759
839.146545	73.515577
839.286926	73.520148
839.427307	73.523844
839.567627	73.528947
839.708008	73.533516
839.848328	73.537403
839.988647	73.540045
840.128967	73.542257
840.269287	73.542719
840.409607	73.543073
840.549927	73.546581
840.690186	73.547990
840.830444	73.548237
840.970703	73.552049
841.110962	73.556879
841.251221	73.563271
841.391418	73.568371
841.531677	73.573928
841.671875	73.581505
841.812073	73.586081
841.952271	73.590618
842.092468	73.592649
842.232605	73.595288
842.372803	73.595117
842.512939	73.595589
842.653076	73.594957
842.793213	73.592981
842.933289	73.588490
843.073425	73.583823
843.213501	73.580452
843.353638	73.575659
843.493713	73.569652
843.633789	73.563798
843.773804	73.556935
843.913879	73.549590
844.053894	73.543052
844.193909	73.538047
844.333923	73.531442
844.473938	73.527777
844.613953	73.526557
844.753906	73.525490
844.893921	73.526178
845.033875	73.528727
845.173828	73.531532
845.313782	73.535367
845.453735	73.538373
845.593628	73.544664
845.733582	73.553310
845.873474	73.562638
846.013367	73.572526
846.153259	73.582380
846.293091	73.595507
846.432983	73.607304
846.572815	73.618518
846.712646	73.629062
846.852478	73.636202
846.992310	73.642026
847.132141	73.646065
847.271912	73.650508
847.411743	73.653123
847.551514	73.655851
847.691284	73.655817
847.831055	73.653330
847.970764	73.649505
848.110535	73.647278
848.250244	73.646298
848.389954	73.645016
848.529663	73.640952
848.669373	73.639131
848.809082	73.634485
848.948730	73.630750
849.088440	73.626281
849.228088	73.623742
849.367737	73.620866
849.507385	73.619526
849.646973	73.621786
849.786621	73.623867
849.926208	73.627677
850.065796	73.628298
850.205383	73.630667
850.344971	73.632645
850.484558	73.637087
850.624084	73.640453
850.763611	73.644649
850.903198	73.648885
851.042725	73.653306
851.182190	73.658235
851.321716	73.664355
851.461182	73.670512
851.600708	73.676514
851.740173	73.683653
851.879639	73.688539
852.019104	73.691509
852.158508	73.693570
852.297974	73.694001
852.437378	73.695999
852.576782	73.700104
852.716187	73.707010
852.855591	73.712585
852.994934	73.719683
853.134338	73.724295
853.273682	73.728970
853.413025	73.735381
853.552368	73.744726
853.691711	73.749674
853.830994	73.752469
853.970337	73.753203
854.109619	73.756642
854.248901	73.757017
854.388184	73.758102
854.527466	73.755407
854.666687	73.755232
854.805969	73.754557
854.945190	73.756583
855.084412	73.757019
855.223633	73.756047
855.362854	73.751710
855.502014	73.746780
855.641235	73.744376
855.780396	73.743013
855.919556	73.743950
856.058716	73.745780
856.197876	73.748345
856.336975	73.749922
856.476135	73.752783
856.615234	73.759654
856.754333	73.766701
856.893433	73.772177
857.032471	73.780257
857.171570	73.788416
857.310608	73.797998
857.449646	73.805529
857.588745	73.814594
857.727722	73.825524
857.866760	73.839744
858.005798	73.853462
858.144775	73.866676
858.283752	73.879129
858.422729	73.889832
858.561707	73.895026
858.700684	73.899033
858.839600	73.902632
858.978516	73.903373
859.117493	73.903990
859.256409	73.903457
859.395264	73.901775
859.534180	73.898947
859.673096	73.894974
859.811951	73.889858
859.950806	73.883601
860.089661	73.876206
860.228516	73.867673
860.367310	73.858006
860.506165	73.847205
860.644958	73.835273
860.783752	73.822212
860.922546	73.808024
861.061340	73.792710
861.200134	73.776274
861.338867	73.758715
861.477600	73.740037
861.616333	73.720242
